nm,mW/m2/nm
199.12,7.38
199.48,7.5
199.84,7.68
200.2,7.79
200.56,7.93
200.92,8.08
201.29,8.37
201.65,8.63
202.01,8.76
202.37,8.8
202.73,8.97
203.09,9.36
203.45,9.71
203.81,10.15
204.17,10.5
204.53,10.9
204.89,11.14
205.24,11.17
205.6,11.15
205.96,11.18
206.32,11.46
206.68,11.99
207.04,12.69
207.4,13.29
207.75,13.79
208.11,14.43
208.47,15.57
208.83,17.53
209.19,19.9
209.54,22.64
209.9,25.45
210.26,27.74
210.61,29.62
210.97,31.44
211.33,34.45
211.68,36.27
212.04,36.58
212.4,34.32
212.75,32.86
213.11,32.61
213.46,34.59
213.82,37.44
214.17,40.81
214.53,42.55
214.88,42.2
215.24,40.24
215.59,38.61
215.95,36.89
216.3,35.75
216.66,34.64
217.01,34.26
217.37,36.05
217.72,40.51
218.07,45.26
218.43,47.56
218.78,47.92
219.13,48.21
219.49,49.68
219.84,52.11
220.19,52.65
220.54,50.23
220.9,45.25
221.25,41.52
221.6,41.82
221.95,45.51
222.31,49.55
222.66,53.56
223.01,58.91
223.36,64.38
223.71,66.66
224.06,65.18
224.41,62.12
224.76,60.04
225.11,57.82
225.47,54.89
225.82,50.8
226.17,46.1
226.52,41
226.87,37.17
227.22,37.07
227.56,41.13
227.91,47.42
228.26,52.1
228.61,53.38
228.96,52.18
229.31,49.82
229.66,48.09
230.01,49.16
230.36,52.01
230.7,53.75
231.05,53.13
231.4,50.98
231.75,51.4
232.09,53.09
232.44,53.79
232.79,51.53
233.14,48.73
233.48,45.42
233.83,42.55
234.18,39.37
234.52,38.69
234.87,42.02
235.22,47.94
235.56,51.84
235.91,51.58
236.25,49.08
236.6,48.6
236.94,49.78
237.63,49.01
237.98,45.26
238.32,41.87
238.67,42.93
239.01,44.67
239.36,45.49
239.7,43.63
240.05,41.73
240.39,40.3
240.73,39.63
241.08,41.12
241.42,46.9
241.76,55.74
242.11,63.86
242.45,67.2
243.14,68.52
243.48,66.8
243.82,65.58
244.16,64.91
244.5,62.75
246.21,46.8
246.55,48.14
246.89,50.82
247.24,53.37
247.58,53.83
247.92,51.71
248.26,47.76
248.6,43.79
248.94,43.58
249.28,48.19
249.62,55.5
249.96,60.47
250.3,60.95
250.64,57.92
250.97,53.7
251.31,49.34
251.65,44.63
251.99,41.53
252.33,40.35
252.67,41.74
253.01,44.47
253.34,48.35
253.68,51.81
254.02,54.48
254.36,56.32
254.7,59.96
255.03,66.03
255.37,74.75
256.04,88.55
256.38,95.31
256.72,106.89
257.05,117.08
257.39,123.89
257.73,126.76
258.06,127.38
258.4,127.37
258.73,124.95
259.07,120.35
259.4,109.79
259.74,99.49
260.07,88.94
260.41,86.59
260.74,84.26
261.08,82.91
261.41,83.96
261.75,92.79
262.08,101.24
262.41,104.71
262.75,101.6
263.08,107.88
263.42,136.46
263.75,186.14
264.08,231.56
264.41,250.94
264.75,247.63
265.08,241.77
265.41,248.06
265.75,259.96
266.08,262.16
266.41,253.74
266.74,246.24
267.07,248.79
267.4,252.93
267.74,254.67
268.07,253.82
268.4,250.91
268.73,247.3
269.06,243.14
269.39,241.29
269.72,248.23
270.05,263.37
270.38,274.23
270.71,275.88
271.04,265.44
271.37,245.07
271.7,219.15
272.03,196.9
272.36,193.17
272.69,209.5
273.02,225.33
273.35,218.97
273.68,192.49
274.01,161.31
274.33,139.53
274.66,135.91
274.99,143.21
275.32,163.34
275.65,189.24
275.97,218.42
276.3,239.44
276.63,253.48
276.96,257.46
277.28,252.94
277.61,235.2
277.94,209.47
278.26,182.51
278.59,159.03
278.92,136.13
279.24,110.17
279.57,88.36
279.89,77.53
280.22,80.46
280.54,97.16
280.87,126.36
281.2,165.18
281.52,206.84
281.85,244.31
282.17,272.58
282.49,294.12
282.82,309.07
283.14,316.49
283.47,318.71
283.79,313.24
284.12,296.88
284.44,262.76
284.76,208.83
285.09,158.29
285.41,145.13
285.73,181.24
286.06,247.34
286.38,305.25
286.7,341.54
287.02,358.77
287.35,360.36
287.67,336.73
287.99,308.82
288.31,301.22
288.63,329.89
288.95,376.94
289.28,426.8
289.6,476.14
289.92,534.58
290.24,583.91
290.56,606.78
290.88,607.57
291.2,596.05
291.52,584.08
291.84,569.63
292.16,545.86
292.48,521.59
292.8,520.71
293.12,534.96
293.44,543.95
293.76,535.16
294.08,518.71
294.4,507.14
294.72,511.42
295.03,518.86
295.35,532.02
295.67,556.11
295.99,569.54
296.31,544.19
296.63,496.71
296.94,456.78
297.26,472.21
297.58,518.86
297.9,532.31
298.21,494.46
298.53,455.21
298.85,452.34
299.16,490.11
299.48,505.18
299.8,474.57
300.11,433.21
300.43,411.46
300.74,420.86
301.06,456.76
301.38,474.06
301.69,454.19
302.01,431.33
302.32,442.44
302.64,499.22
302.95,583.3
303.27,634.03
303.58,635.87
303.89,615.37
304.21,597.49
304.52,600.55
304.84,630.03
305.15,641.01
305.46,617.33
305.78,586.43
306.09,558.24
306.4,556.42
306.72,582.34
307.03,608.39
307.34,626.39
307.65,639.75
307.97,641.86
308.28,643.23
308.59,633.91
308.9,601.99
309.22,555.44
309.53,506.66
309.84,493.15
310.15,530.16
310.46,612.81
310.77,713.62
311.08,785.79
311.39,787.75
311.7,747.83
312.01,707.35
312.32,686.58
312.63,693.5
312.94,709.22
313.25,717.64
313.56,733.57
313.87,735.19
314.18,712.38
314.49,681.78
314.8,667.11
315.11,680.64
315.42,677.99
315.73,629.66
316.03,583.21
316.34,586.39
316.65,653.73
316.96,743.86
317.27,806.32
317.57,805.54
317.88,746.6
318.19,679.39
318.5,663.94
318.8,683.06
319.11,704.93
319.42,713.08
319.72,730.76
320.03,780.3
320.34,833.88
320.64,828.41
320.95,770.81
321.25,711.02
321.56,690.61
321.86,717.77
322.17,741.96
322.48,720.53
322.78,677.22
323.09,649.33
323.39,655.76
323.69,694.14
324,739.64
324.3,776.83
324.61,800.58
324.91,811.14
325.22,841.42
325.52,904.33
325.82,978.64
326.43,1026.5
326.73,1011.03
327.03,998.78
327.34,981.25
327.64,958.42
327.94,936.33
329.45,1089.73
329.75,1147.85
330.05,1141.34
330.36,1093.85
330.66,1039.46
330.96,1000.79
331.26,1000.51
331.56,1017.14
331.86,1010.5
332.16,1007.56
332.46,1004.94
332.76,998.8
333.06,997.34
333.36,977.93
333.66,954.02
333.96,957.57
334.26,984.62
334.56,1008.67
334.86,1019.31
335.15,1037.82
335.45,1030.18
335.75,985.19
336.05,931.77
336.35,870.06
336.65,846.17
336.94,857.99
337.24,870.98
337.54,891.54
337.84,937.1
338.13,972.39
338.43,980.03
338.73,994.17
339.02,1008.07
339.32,999.49
339.62,1018.77
339.91,1067.98
340.21,1104.44
340.51,1087.04
340.8,1033.34
341.1,979.85
341.39,958.59
341.69,973.71
341.98,998.18
342.28,1029.69
342.57,1056.07
342.87,1068.78
343.16,1082.46
343.46,1068.72
343.75,975.84
344.05,866.82
344.34,814.39
344.38,916.96
345.46,966.39
346.53,985.24
347.61,968.1
349.76,1005.55
350.83,1078.2
351.91,1023.15
352.98,1035.92
354.06,1158.12
355.13,1162.8
356.2,1048.19
357.28,908.62
358.35,824.35
359.42,1023.59
360.49,1058.22
361.57,984.43
362.64,1074.9
363.71,1096.63
364.78,1120.41
365.85,1262.89
366.92,1296.79
367.99,1227.01
369.06,1247.5
370.13,1280.71
371.19,1230
372.26,1160.33
373.33,1029.41
374.4,966.42
375.47,1073.67
376.53,1148.93
377.6,1321.84
378.67,1320.88
379.73,1151.14
380.8,1231.35
381.86,1018.48
382.93,773.43
383.99,835.17
385.06,1048.74
386.12,1036.49
387.18,1066.4
388.25,1030.3
389.31,1157.32
390.37,1269.99
391.43,1330.14
392.5,1025.04
393.56,689.96
394.62,1089.54
395.68,1248.71
396.74,835.17
397.8,1196.46
398.86,1628.07
399.92,1734.38
400.98,1797.92
402.04,1881.96
403.1,1836.73
404.15,1788.64
405.21,1737.35
406.27,1663.39
409.44,1721.78
410.5,1583.17
413.66,1771.99
414.72,1762.13
415.77,1763.9
416.83,1788.78
417.88,1713.22
418.93,1749.67
419.99,1715.66
421.04,1825.44
422.09,1763.19
423.14,1683.15
424.19,1750.75
425.25,1724.9
426.3,1731.03
427.35,1645.09
428.4,1656.42
429.45,1497.55
430.5,1236.01
431.55,1542.01
432.6,1699.47
433.65,1652.05
434.69,1613.33
435.74,1774.12
436.79,1851.48
437.84,1730.22
438.88,1678.1
439.93,1823.29
440.98,1846.74
442.02,1955.54
443.07,1953.96
444.11,1958.66
445.16,1943.52
446.2,1859.16
447.25,1999.92
448.29,2026.49
449.34,2027.19
450.38,2128.2
451.42,2143.8
452.46,2032.87
453.51,1974.03
454.55,2065.35
455.59,2071.23
456.63,2130.29
457.67,2117.36
458.71,2049.37
459.75,2045.22
460.79,2085.35
461.83,2110.88
462.87,2123.16
463.91,2070.17
464.95,2018.51
465.99,2053.85
467.03,1979.44
468.06,2030.75
469.1,2040.35
470.14,1977.21
471.18,1994.41
472.21,2104.23
473.25,2043.71
474.28,2096.99
475.32,2101.69
476.35,2052.39
477.39,2111.71
478.42,2107.2
479.46,2102.24
480.49,2087.7
481.52,2100.21
482.56,2075.89
483.59,2044.26
484.62,2015.88
485.65,1803.03
486.69,1713.13
487.72,1911.44
488.75,1928.42
489.78,2026.38
490.81,2024.79
491.84,1915
492.87,1959.68
493.9,1966.72
494.93,2037.81
495.95,1980.62
496.98,2008.5
498.01,1945.63
499.04,1936.22
500.07,1933.76
501.09,1856.89
502.12,1866.73
503.14,1949.82
504.17,1895.54
505.2,1972.79
506.22,2025.31
509.3,1925.83
510.32,1886.25
511.34,1932.24
512.37,1912.35
513.39,1860.8
514.41,1827.88
515.43,1865.84
516.46,1731.09
517.48,1620.62
518.5,1680.97
519.52,1799.12
520.54,1828.57
521.56,1860.44
522.58,1815.37
523.6,1852.34
524.62,1909.16
525.64,1874.55
526.66,1689.5
527.67,1771.1
528.69,1889.98
529.71,1882.45
530.73,1916.35
531.74,1908.22
533.78,1849.88
534.79,1866.26
535.81,1935.56
536.82,1838.03
537.84,1881.07
538.85,1874.68
539.87,1808.46
540.88,1785.13
541.89,1859.82
542.91,1843.83
543.92,1878.12
544.93,1878.18
545.94,1882.46
546.95,1876
547.97,1836.8
548.98,1884.52
549.99,1879.56
551,1861.38
552.01,1888.95
553.02,1849.92
554.03,1876.58
555.04,1882.89
556.05,1850.62
557.05,1800.09
558.06,1808.16
559.07,1739.88
560.08,1769.94
561.08,1826.23
562.09,1782.71
564.1,1796.74
565.11,1793.25
566.11,1753.66
567.12,1814.06
568.12,1794.37
569.13,1784.08
570.13,1783.8
571.14,1730.81
572.14,1827.49
573.14,1841.29
574.15,1836.36
575.15,1795.26
576.15,1790.05
577.15,1816.01
578.15,1772.67
579.15,1778.3
580.15,1801.76
581.15,1799.4
582.15,1823.45
583.15,1825.76
584.15,1821.53
585.15,1786.45
586.15,1754.09
587.15,1799.62
588.15,1779.81
589.15,1615.59
590.14,1706.3
591.14,1760.01
592.14,1773.61
593.13,1756.12
594.13,1774.96
595.12,1754.4
596.12,1763.55
597.11,1776.38
598.11,1746.95
599.1,1747.82
600.1,1742.24
601.09,1719
602.08,1698.63
603.08,1740.39
604.07,1753.07
605.06,1747.04
606.05,1728.57
607.05,1733.1
608.04,1708.42
609.03,1698.7
610.02,1686.59
611.01,1697.75
612,1688.43
612.99,1678.83
613.98,1644.19
614.97,1670.89
615.96,1619.9
616.94,1604.64
617.93,1658.74
618.92,1657.86
619.91,1673.65
620.89,1685.56
621.88,1656.77
622.87,1655.62
624.84,1623.72
625.82,1621.38
626.81,1667.17
627.79,1673.71
628.78,1670.34
629.76,1643.84
630.74,1641.17
631.73,1609.82
632.71,1643.07
633.69,1621.6
634.67,1631.82
635.66,1627.56
636.64,1621.95
637.62,1647.11
638.6,1641.4
639.58,1605.07
640.56,1593.58
641.54,1586.33
642.52,1602.68
643.5,1595.96
644.48,1597.42
645.46,1582.34
646.43,1582.56
647.41,1593.35
648.39,1595.03
649.37,1531.99
650.34,1591.1
651.32,1605.48
652.3,1579.08
653.27,1566.51
654.25,1549.99
655.22,1500.44
656.2,1271.32
657.17,1421.29
658.15,1528.21
659.12,1524.49
660.09,1541.46
661.07,1545.96
662.04,1558.04
663.01,1530.7
663.98,1520.68
664.96,1536.09
665.93,1528.35
666.9,1517.83
667.87,1516.86
668.84,1530.98
669.81,1516.61
670.78,1513.7
671.75,1503.91
672.72,1499.42
673.69,1492.54
674.66,1487.61
675.62,1486.35
676.59,1486.16
677.56,1483.45
678.53,1479.48
679.49,1477.38
680.46,1476.17
681.43,1473.87
682.39,1470.05
683.36,1461.78
684.32,1449.7
685.29,1446.87
686.25,1457.1
687.21,1462.28
688.18,1462.52
689.14,1469.1
690.1,1475.55
691.07,1469.48
692.03,1458.55
692.99,1458.58
693.95,1461.51
694.91,1443.36
695.88,1452.49
696.84,1452.38
697.8,1422.52
698.76,1458.06
699.72,1449.55
700.68,1426.66
701.64,1419.93
702.59,1426.56
703.55,1432.21
704.51,1445.92
705.47,1436.23
706.43,1417.3
707.38,1419.8
708.34,1407.49
709.29,1391.61
710.25,1405.39
711.21,1381.99
712.16,1373.43
713.12,1373.31
714.07,1379.03
715.03,1363.43
715.98,1369.03
716.93,1373.26
717.89,1366.08
718.84,1341.93
719.79,1354.12
720.74,1351.42
721.7,1352.08
722.65,1349.04
723.6,1355.14
724.55,1350.01
725.5,1338.19
726.45,1341.2
727.4,1340.59
728.35,1315.03
729.3,1299.64
730.25,1331.35
731.2,1324.96
732.15,1327.88
733.09,1318.17
734.04,1331.01
734.99,1315.4
735.94,1303.14
736.88,1304.99
737.83,1300.33
738.77,1260.68
739.72,1277.2
740.67,1263.21
741.61,1254.67
742.55,1274.99
743.5,1291.94
744.44,1277.16
745.39,1291.91
746.33,1284.46
747.27,1289.65
748.22,1287.83
749.16,1265.55
750.1,1266.98
751.04,1255.15
751.98,1266.21
752.92,1259.84
753.86,1272.91
754.8,1270.25
755.74,1265.66
756.68,1271.06
757.62,1272.27
758.56,1251.31
759.5,1270.05
760.44,1255.71
761.38,1242.88
762.31,1237.99
763.25,1258.8
764.19,1257.99
765.12,1248.33
766.06,1193.62
767,1227.73
767.93,1241.77
768.87,1228.31
769.8,1225.49
770.74,1226.23
771.67,1220.35
772.6,1219.49
777.27,1164.85
778.2,1160.99
779.13,1171.28
780.06,1159.5
780.99,1163.58
781.92,1172.14
782.85,1156.31
783.78,1144.6
784.71,1155.99
786.57,1157.38
787.5,1151.51
788.43,1152.02
789.35,1154.52
790.28,1156.03
791.21,1140.01
792.14,1132.03
793.06,1112.53
793.99,1102.71
794.91,1121.38
795.84,1136.98
796.76,1134.1
797.69,1132.86
798.61,1131.27
799.54,1116.11
800.46,1116.9
801.38,1126.28
802.31,1119.26
803.23,1118.22
804.15,1118.7
805.08,1100.6
806,1115.63
806.92,1109.64
807.84,1106.92
808.76,1100.43
809.68,1092.14
810.6,1106.48
811.52,1108.46
812.44,1112.31
813.36,1114.85
814.28,1104.99
815.2,1103.34
816.11,1100.14
817.03,1095.62
817.95,1081.35
818.87,1067.07
819.78,1057.84
820.7,1066.97
821.61,1052.31
822.53,1074.56
823.45,1071.43
824.36,1068.96
825.28,1065.3
826.19,1069.62
827.1,1072.1
828.02,1063.4
828.93,1060.31
829.84,1055.93
830.76,1047.41
831.67,1059.88
832.58,1033.46
833.49,1016.32
834.4,1021.71
835.31,1043.1
836.22,1044.19
837.14,1041.11
838.04,1022
838.95,1022.91
839.86,1037.94
840.77,1041.5
841.68,1020.21
842.59,1010.43
843.5,990.93
844.41,1011.9
845.31,1029.24
846.22,1025.13
847.13,1000.04
848.03,1003.19
848.94,984.41
849.84,903.33
850.75,979.66
851.65,962.37
852.56,974.33
853.46,885.25
854.37,771.82
855.27,937.93
856.17,976.94
857.08,964.59
857.98,975.78
858.88,970.5
859.78,977.94
860.68,975.09
861.59,978.19
862.49,1009.31
863.39,994.47
864.29,995.14
865.19,950.54
866.09,827.45
866.99,914.64
867.88,977.93
868.78,948.86
869.68,973.31
870.58,965.23
871.48,949.37
872.37,972.91
873.27,962.19
874.17,935.36
875.04,934.76
875.12,935.12
875.2,936.64
875.27,935.68
875.35,932.51
875.43,930.4
875.5,929.09
875.58,928.64
875.66,929.85
875.73,932.83
875.81,936.44
875.89,940.9
875.96,945.36
876.04,949.26
876.12,953.01
876.19,955.2
876.27,955.47
876.35,957.62
876.42,961.34
876.5,965.19
876.58,968.91
876.66,973.19
876.73,975.03
876.81,974.81
876.89,973.07
876.96,970.11
877.04,966.43
877.12,963.58
877.19,961.32
877.27,960.57
877.35,960.86
877.42,961.77
877.5,961.73
877.58,961.68
877.66,961.24
877.73,960.64
877.81,959.95
877.89,960.26
877.96,960.73
878.04,962.29
878.12,964.55
878.19,967.03
878.27,968.91
878.35,970.58
878.43,971.12
878.5,971.06
878.58,970.13
878.66,967.4
878.73,965.32
878.81,963.22
878.89,959.6
878.97,954.75
879.04,952.39
879.12,949.87
879.2,947.47
879.28,946.1
879.35,946.93
879.43,946.82
879.51,946.09
879.59,944.77
879.66,945.55
879.74,947.35
879.82,949.16
879.89,950.54
879.97,953.83
880.05,955.47
880.13,955.41
880.2,952.15
880.28,944.56
880.36,935.78
880.44,926.87
880.51,918.72
880.59,913.53
880.67,913.45
880.75,913.16
880.82,912.77
880.9,911.94
880.98,910.55
881.06,908.94
881.14,907.54
881.21,905.34
881.29,907.75
881.37,914.9
881.45,923.82
881.52,932.96
881.6,943.46
881.68,949.9
881.76,952.46
881.83,953.19
881.91,952.75
881.99,949.25
882.07,942.84
882.15,938.35
882.22,934.49
882.3,931.84
882.38,931.87
882.46,934.45
882.53,935.06
882.61,935.09
882.69,934.76
882.77,934.41
882.85,934.01
882.92,933.06
883,931.56
883.08,933.84
883.16,938.02
883.24,942.37
883.31,947.19
883.39,951.24
883.47,949.1
883.55,945.76
883.63,942.65
883.7,939.87
883.78,938.31
883.86,938.7
883.94,938.28
884.02,937.96
884.09,937.58
884.17,936.99
884.25,936.14
884.33,934.94
884.41,932.9
884.49,933.14
884.56,934.92
884.64,937.6
884.72,940.8
884.8,944.42
884.88,945.87
884.96,946.34
885.03,946.47
885.11,946.36
885.19,945.96
885.27,945.57
885.35,945.62
885.43,945.66
885.5,945.47
885.58,944.32
885.66,940.46
885.74,935.78
885.82,929.81
885.9,922.59
885.97,916.3
886.05,912.32
886.13,908.22
886.21,904.16
886.29,899.22
886.37,894.95
886.45,890.36
886.53,886.29
886.6,883.14
886.68,884.73
886.76,887.21
886.84,890.83
886.92,895.8
887,902.36
887.08,907.31
887.15,911.02
887.23,912.79
887.31,915.62
887.39,918.23
887.47,920.63
887.55,923.84
887.63,928.55
887.71,930.67
887.78,931.73
887.86,932.15
887.94,931.58
888.02,930.79
888.1,930.21
888.18,929.46
888.26,929.74
888.34,930.72
888.41,931.72
888.49,933.2
888.57,935.04
888.65,935.62
888.73,935.64
888.81,935.38
888.89,933.41
888.97,931.84
889.05,931.23
889.13,930.88
889.21,930.93
889.28,931.9
889.36,932.38
889.44,932.28
889.52,931.51
889.6,930.64
889.68,930.29
889.76,930.26
889.84,930.01
889.92,931.26
890,932.94
890.08,934.29
890.16,935.34
890.23,936.71
890.31,937.04
890.39,936.98
890.47,936.5
890.55,936.1
890.63,936.03
890.71,935.52
890.79,933.46
890.87,931.95
890.95,930.52
891.03,928.88
891.11,927.72
891.19,928.06
891.27,928.08
891.34,927.89
891.42,927.51
891.5,926.39
891.58,924.22
891.66,922.5
891.74,920.44
891.82,919.61
891.9,919.52
891.98,919.49
892.06,918.64
892.14,917.91
892.22,915.94
892.3,913.04
892.38,910.08
892.46,907.07
892.54,902.86
892.62,900.5
892.7,899.44
892.78,899.22
892.86,899.44
892.94,900.91
893.02,901.3
893.1,902.21
893.18,904.07
893.26,905.94
893.34,908.15
893.42,910.73
893.49,912.79
893.58,915.4
893.66,918.26
893.73,921.05
893.82,922.56
893.9,921.79
893.97,920.28
894.05,918.23
894.13,914.03
894.21,909.64
894.29,907.09
894.37,904
894.45,901.08
894.53,899.36
894.61,897.76
894.69,896.6
894.77,895.43
894.85,893.7
894.93,894.87
895.02,896.85
895.09,897.87
895.17,900.4
895.26,905.02
895.34,908.45
895.41,911.75
895.5,915.58
895.58,918.36
895.66,920.52
895.74,921.99
895.82,923.17
895.9,924.49
895.98,925.25
896.06,925.2
896.14,924.74
896.22,923.29
896.3,920.54
896.38,917.23
896.46,914.06
896.54,911.1
896.62,909.1
896.7,908.43
896.78,908.51
896.86,908.58
896.94,908.66
897.02,908.4
897.1,906.97
897.18,904.62
897.26,902.22
897.34,900.79
897.42,900.62
897.51,902.03
897.59,904.64
897.67,907.38
897.75,909.16
897.83,910.01
897.91,910.41
897.99,909.94
898.07,908.08
898.15,906.96
898.23,906.74
898.31,907.01
898.39,907.95
898.47,910.24
898.55,912.01
898.63,912.86
898.72,912.71
898.8,912.25
898.88,911.69
898.96,910.68
899.04,909.12
899.12,908.83
899.2,908.91
899.28,908.57
899.36,908.49
899.44,907.95
899.52,902.78
899.6,897.75
899.68,893.55
899.77,889.61
899.85,887.11
899.93,888.47
900.01,889.28
900.09,889.69
900.17,889.84
900.25,889.01
900.33,888.09
900.41,885.61
900.49,881.28
900.58,878.44
900.66,877.42
900.74,876.33
900.82,874.54
900.9,874.27
900.98,870.83
901.06,865.17
901.14,858.95
901.23,854.39
901.31,848.98
901.39,844.94
901.47,842.89
901.55,840.95
901.63,841.14
901.71,843.05
901.79,843.63
901.88,845.97
901.96,849.4
902.04,851.8
902.12,855.27
902.2,861.57
902.28,865.47
902.36,870.34
902.45,875.81
902.53,879.66
902.61,882.93
902.69,885.32
902.77,886.51
902.85,888.51
902.93,890.8
903.02,892.25
903.1,895.33
903.18,898.13
903.26,899.25
903.34,900.07
903.42,901.35
903.51,901.64
903.59,901.81
903.67,901.93
903.75,902.78
903.83,903.63
903.91,904.41
904,905.34
904.08,906.35
904.16,906.4
904.24,906.41
904.32,906.67
904.4,906.85
904.49,907.01
904.57,907.35
904.65,907.4
904.73,906.54
904.81,905.89
904.9,905.25
904.98,904.65
905.06,904.12
905.14,904.2
905.22,904.17
905.3,904.22
905.39,903.99
905.47,903.45
905.55,903.05
905.63,901.98
905.72,897.9
905.8,893.06
905.88,888.28
905.96,884.17
906.04,880.83
906.13,880.38
906.21,880.92
906.29,881.57
906.37,881.34
906.45,880.96
906.54,880.82
906.62,879.97
906.7,878.57
906.78,878.78
906.86,881
906.95,883.98
907.03,888.19
907.11,892.92
907.19,896.21
907.28,897.48
907.36,897.14
907.44,893.92
907.52,889.66
907.61,884.9
907.69,881.22
907.77,878.39
907.85,877.9
907.93,878.11
908.02,879.35
908.1,879.85
908.18,880.22
908.27,880.07
908.35,878.94
908.43,871.21
908.51,863.93
908.59,859.56
908.68,857
908.76,856.11
908.84,861.18
908.93,865.38
909.01,865.4
909.09,861.21
909.17,857.76
909.26,854.42
909.34,851.15
909.42,846.54
909.5,848.16
909.59,852.46
909.67,856.55
909.75,861.36
909.84,868.68
909.92,872.12
910,871.69
910.08,870.57
910.17,871.3
910.25,872.62
910.33,874.67
910.41,876.02
910.5,878.38
910.58,879.46
910.66,879.46
910.75,877.44
910.83,875.67
910.91,874.18
911,872.29
911.08,870.91
911.16,870.84
911.24,871.15
911.33,869.42
911.41,867.09
911.49,862.7
911.58,860.25
911.66,858.15
911.74,856.6
911.83,856.64
911.91,860.55
911.99,863.51
912.08,866.39
912.16,870.19
912.24,871.85
912.33,871.38
912.41,872.63
912.49,873.27
912.58,876.41
912.66,879.98
912.74,884.73
912.83,887.25
912.91,890.27
912.99,890.73
913.08,890.59
913.16,890.37
913.24,889.95
913.33,889.6
913.41,889.2
913.49,888.75
913.58,888.1
913.66,887.56
913.74,886.79
913.83,885.81
913.91,884.79
913.99,883.97
914.08,883.1
914.16,881.65
914.24,879.77
914.33,877.48
914.41,874.52
914.49,871.52
914.58,869.31
914.66,867.96
914.75,867.27
914.83,867.52
914.91,868.17
915,868.53
915.08,868.56
915.16,868.42
915.25,868.64
915.33,869.25
915.42,870.87
915.5,873.25
915.58,875.69
915.67,877.52
915.75,878.88
915.84,879.41
915.92,879.06
916,877.71
916.09,876.41
916.17,875.21
916.25,874.24
916.34,873.5
916.42,873.36
916.51,872.96
916.59,872.2
916.67,871.17
916.76,869.81
916.84,868.3
916.93,865.91
917.01,863.41
917.09,861.97
917.18,860.89
917.26,860.04
917.35,860.35
917.43,860.81
917.52,860.29
917.6,859.95
917.68,860.01
917.77,860.02
917.85,860.28
917.94,860.93
918.02,862.63
918.1,864.46
918.19,866.41
918.27,868.39
918.36,870.07
918.44,870.29
918.53,870.34
918.61,870.54
918.7,870.67
918.78,870.72
918.86,870.9
918.95,870.83
919.03,870.7
919.12,870.58
919.2,870.49
919.29,870.28
919.37,870.13
919.46,869.55
919.54,868.45
919.63,867.22
919.71,866.25
919.79,865.01
919.88,863.52
919.96,862.64
920.05,861.76
920.13,860.65
920.22,859.74
920.3,859.14
920.39,858
920.47,856.64
920.56,854.75
920.64,852.77
920.73,850.74
920.81,848.32
920.9,845.09
920.98,842.49
921.07,839.82
921.15,837.7
921.23,836.35
921.32,835.17
921.4,833.26
921.49,831.62
921.57,830.06
921.66,829.67
921.74,830.8
921.83,833.14
921.91,836.21
922,839.45
922.08,841.05
922.17,841.85
922.25,841.52
922.34,839.16
922.42,835.33
922.51,831.11
922.59,826.12
922.68,821.22
922.77,816.88
922.85,812.86
922.93,809.39
923.02,807.11
923.1,806.24
923.19,806.51
923.28,807.12
923.36,807.54
923.45,808.98
923.53,811.65
923.62,815.5
923.7,820.62
923.79,826.68
923.87,832.16
923.96,836.07
924.04,838.41
924.13,839.54
924.21,839.37
924.3,838.34
924.39,837.87
924.47,838.21
924.56,838.92
924.64,840.77
924.73,842.99
924.81,844.39
924.9,844.78
924.98,844.81
925.07,844.23
925.16,841.35
925.24,837.92
925.33,835.87
925.41,833.12
925.5,829.39
925.58,827.75
925.67,826.45
925.76,823.78
925.84,821.55
925.93,820.39
926.01,819.35
926.1,818.33
926.18,818.64
926.27,821.4
926.35,824.64
926.44,828.33
926.53,833.48
926.61,838.35
926.7,841.47
926.78,844.58
926.87,847.18
926.96,848.86
927.04,850.31
927.13,851.87
927.21,853.32
927.3,855.05
927.39,856.29
927.47,856.43
927.56,856.08
927.64,855.98
927.73,855.72
927.82,855.34
927.9,855.49
927.99,856.05
928.07,856.27
928.16,856.11
928.25,855.77
928.33,855.13
928.42,854.05
928.51,852.68
928.59,850.94
928.68,849.11
928.76,847.55
928.85,846.45
928.94,845.69
929.02,844.92
929.11,844.06
929.2,842.85
929.28,841.25
929.37,839.79
929.45,839.02
929.54,838.73
929.63,839.4
929.71,840.9
929.8,842.4
929.89,843.96
929.97,845.38
930.06,846.14
930.15,846.58
930.23,847.01
930.32,847.48
930.41,848.17
930.49,848.84
930.58,849.32
930.66,849.66
930.75,849.58
930.84,849.4
930.92,849.21
931.01,848.6
931.1,848.02
931.18,848.02
931.27,847.83
931.36,846.75
931.45,845.52
931.53,844.47
931.62,843.23
931.71,842.25
931.79,842.14
931.88,842.68
931.97,842.82
932.05,842.6
932.14,842.38
932.23,841.92
932.31,840.81
932.4,840.5
932.49,841.48
932.58,842.63
932.66,843.99
932.75,845.73
932.84,847.03
932.92,846.95
933.01,846.13
933.1,845.52
933.18,845.13
933.27,844.56
933.36,844.52
933.45,845.11
933.53,845.5
933.62,845.75
933.71,845.98
933.79,846
933.88,845.43
933.97,844.77
934.06,844.44
934.14,843.99
934.23,843.55
934.32,843.71
934.41,843.95
934.49,843.68
934.58,842.42
934.67,840.43
934.75,838.59
934.84,836.57
934.93,834.74
935.02,834.01
935.1,833.98
935.19,833.86
935.28,833.85
935.37,833.63
935.45,832.7
935.54,830.85
935.63,829.42
935.72,829.07
935.8,828.28
935.89,827.71
935.98,828.34
936.07,828.51
936.15,827.81
936.24,828.06
936.33,829.07
936.42,829.59
936.51,830.17
936.59,831.43
936.68,832.81
936.77,833.85
936.86,835.02
936.94,835.94
937.03,836.05
937.12,835.68
937.21,835.58
937.29,835.52
937.38,835.39
937.47,835.56
937.56,835.64
937.65,835.22
937.73,834.76
937.82,834.17
937.91,833.74
938,833.89
938.09,834.61
938.17,835.59
938.26,836.55
938.35,836.52
938.44,835.66
938.53,834.43
938.61,832.87
938.7,831.75
938.79,831.22
938.88,830.54
938.97,829.82
939.05,829.36
939.14,828.7
939.23,827.88
939.32,827.37
939.41,827.45
939.5,827.86
939.59,828.19
939.67,828.11
939.76,827.59
939.85,827.01
939.94,826.41
940.03,825.59
940.11,823.73
940.2,821.24
940.29,818.57
940.38,815.53
940.47,812.78
940.56,810.89
940.65,809.39
940.73,808.36
940.82,807.75
940.91,804.69
941,798.52
941.09,791.61
941.18,785.22
941.27,780.25
941.35,778.08
941.44,779.63
941.53,782.86
941.62,785.15
941.71,785.57
941.8,785.29
941.89,784.68
941.97,785.89
942.06,789.76
942.15,796.18
942.24,804.26
942.33,812.84
942.42,819.88
942.51,823.95
942.6,824.96
942.68,824.51
942.77,823.92
942.86,822.6
942.95,821
943.04,820.07
943.13,819.37
943.22,818.53
943.31,817.1
943.4,814.45
943.48,810.52
943.57,807.03
943.66,804.02
943.75,802.01
943.84,802.11
943.93,803.7
944.02,804.35
944.11,804.81
944.2,804.97
944.29,803.74
944.38,802.29
944.47,802.93
944.55,804.45
944.64,806.6
944.73,809.5
944.82,811.88
944.91,812.18
945,811.69
945.09,811.01
945.18,810.51
945.27,810.54
945.36,811.86
945.45,813.28
945.54,814.71
945.63,816.34
945.72,817.77
945.8,817.98
945.9,817.08
945.98,815.46
946.07,814.24
946.16,813.71
946.25,813.6
946.34,814.41
946.43,815.81
946.52,816.4
946.61,816.17
946.7,815.8
946.79,815.02
946.88,814.49
946.97,814.72
947.06,815.46
947.15,816.44
947.24,817.75
947.33,818.79
947.42,818.99
947.51,818.67
947.6,818.45
947.69,818.32
947.78,818.07
947.87,818
947.96,818.12
948.05,818.19
948.14,818.1
948.23,817.88
948.32,817.69
948.41,817.45
948.5,817.05
948.59,816.92
948.68,817.08
948.77,817.45
948.86,818.07
948.95,818.38
949.04,817.97
949.13,817.24
949.22,816.66
949.31,816.1
949.4,815.78
949.49,816.26
949.58,817.17
949.67,817.47
949.76,817.17
949.85,816.41
949.94,815.25
950.03,813.45
950.12,811.6
950.21,810.52
950.3,809.88
950.39,809.28
950.48,809.17
950.57,808.99
950.66,807.96
950.75,806.91
950.84,806.12
950.93,805.15
951.02,804.54
951.11,805.13
951.2,806.2
951.29,807.1
951.38,808.08
951.47,808.89
951.57,808.65
951.66,807.72
951.75,807.32
951.84,807.16
951.93,807.48
952.02,808.44
952.11,809.56
952.2,809.74
952.29,809.38
952.38,808.57
952.47,807.39
952.56,805.43
952.65,804.45
952.74,804.35
952.84,804.35
952.92,804.34
953.02,804.69
953.11,803.5
953.2,801.5
953.29,799.45
953.38,797.86
953.47,796.48
953.56,796.32
953.65,796.75
953.74,797.09
953.83,796.59
953.92,795.36
954.02,792
954.11,786.84
954.2,779.83
954.29,772.71
954.38,766.3
954.47,761.16
954.56,757.41
954.65,755.35
954.74,753.6
954.84,751.96
954.93,750.71
955.02,750.27
955.11,750.95
955.2,753.74
955.29,758.57
955.38,765.06
955.47,772.21
955.57,779.15
955.66,784.49
955.75,788.18
955.84,790.76
955.93,792.5
956.02,793.85
956.11,795.09
956.21,796.16
956.3,797.28
956.39,798.27
956.48,798.37
956.57,797.23
956.66,795.55
956.76,793.71
956.85,791.7
956.94,790.18
957.03,789.2
957.12,788.89
957.21,788.35
957.3,787.78
957.4,787.18
957.49,786.82
957.58,786.97
957.67,788.09
957.76,789.56
957.85,791.61
957.95,793.82
958.04,795.85
958.13,797.38
958.22,798.46
958.31,799.3
958.41,799.92
958.5,800.1
958.59,799.95
958.68,799.75
958.77,799.59
958.86,799.73
958.96,799.59
959.05,799.46
959.14,799.15
959.23,798.68
959.33,798.06
959.42,797.76
959.51,797.11
959.6,796.15
959.69,795.45
959.78,794.66
959.88,792.99
959.97,791.27
960.06,789.84
960.15,787.87
960.25,785.81
960.34,784.28
960.43,783.09
960.52,782.05
960.61,782.1
960.71,782.86
960.8,783.81
960.89,785.03
960.98,786.94
961.08,788.44
961.17,789.71
961.26,791.24
961.35,792.79
961.45,794.12
961.54,795.3
961.63,795.69
961.72,794.45
961.82,793.12
961.91,791.31
962,788.89
962.09,786.85
962.19,785.56
962.28,782.61
962.37,780.45
962.46,778.92
962.56,777.69
962.65,776.79
962.74,778.58
962.84,780.17
962.93,780.85
963.02,780.65
963.11,781.22
963.21,780.18
963.3,779.7
963.39,779.54
963.48,779.78
963.58,779.84
963.67,780.06
963.76,779.19
963.85,778.45
963.95,777.86
964.04,778.29
964.13,779.03
964.23,779.37
964.32,779.27
964.41,780.09
964.51,780.71
964.6,781.16
964.69,782.27
964.78,783.76
964.88,783.76
964.97,782.37
965.07,781.1
965.16,779.49
965.25,777.71
965.34,776.03
965.44,773.47
965.53,770.71
965.62,768.69
965.72,767.04
965.81,765.74
965.9,766.16
966,767.33
966.09,767.95
966.18,768.53
966.28,769.44
966.37,770.05
966.46,771.68
966.56,774.22
966.65,776.46
966.74,779
966.84,781.58
966.93,782.16
967.02,781.32
967.12,779.73
967.21,777.89
967.3,776.03
967.4,774.53
967.49,773.35
967.59,772.95
967.68,773.06
967.77,773.2
967.87,773.28
967.96,773.51
968.05,773.72
968.15,774.28
968.24,775.57
968.34,777.1
968.43,778.14
968.52,778.45
968.62,778.32
968.71,777.39
968.8,776.32
968.9,775.58
968.99,775.6
969.09,775.52
969.18,775.32
969.27,774.97
969.37,774.68
969.46,774.44
969.56,775.1
969.65,776.16
969.74,777
969.84,777.48
969.93,778.19
970.03,778.14
970.12,777.1
970.21,775.28
970.31,774.14
970.4,773.09
970.5,771.56
970.59,770.73
970.68,770.65
970.78,770.14
970.87,770.22
970.97,770.69
971.06,770.56
971.16,770.39
971.25,771.34
971.34,772.25
971.44,772.91
971.53,774.01
971.63,775.48
971.72,775.92
971.82,775.85
971.91,775.58
972.01,775.27
972.1,775.03
972.2,774.9
972.29,774.7
972.38,774.13
972.48,773.05
972.57,772.2
972.67,771.23
972.76,770.33
972.86,769.95
972.95,770.29
973.05,769.66
973.14,769.18
973.24,768.3
973.33,766.49
973.43,762.86
973.52,760.88
973.61,759.13
973.71,758.09
973.8,758.02
973.9,759.31
973.99,758.23
974.09,757.79
974.18,756.94
974.28,755.1
974.37,752.78
974.47,753.85
974.56,754.96
974.66,756.52
974.75,759.19
974.85,762.62
974.94,763.45
975.04,764.23
975.13,764.88
975.23,764.98
975.32,765.5
975.42,767.22
975.52,768.2
975.61,768.9
975.71,770.13
975.8,770.71
975.9,769.2
975.99,766.32
976.09,763.88
976.18,761.29
976.28,759.24
976.37,758.33
976.47,758.18
976.56,757.6
976.66,756.72
976.75,755.59
976.85,754.23
976.94,753.63
977.04,754.61
977.14,756.56
977.23,758.92
977.33,761.54
977.42,763.65
977.52,764.61
977.61,764.76
977.71,764.79
977.8,765.16
977.9,765.05
977.99,764.12
978.09,763.31
978.19,762.14
978.28,759.53
978.38,756.48
978.47,753.89
978.57,751.43
978.66,749.16
978.76,748.32
978.86,748.32
978.95,748.77
979.05,749.73
979.14,751.02
979.24,751.6
979.34,752.47
979.43,754.1
979.53,755.63
979.62,755.62
979.72,756.42
979.82,757.21
979.91,756.91
980.01,756.06
980.1,756.44
980.2,756.28
980.3,756.21
980.39,756.09
980.49,756.1
980.58,755.42
980.68,756.19
980.78,757.07
980.87,758.2
980.97,759.22
981.07,760.96
981.16,761.14
981.26,761.25
981.35,760.97
981.45,760.83
981.55,760.64
981.64,760.57
981.74,759.75
981.84,759.51
981.93,759.2
982.03,758.75
982.13,758.13
982.22,758.18
982.32,757.6
982.41,756.93
982.51,756.49
982.61,756.1
982.7,755.51
982.8,755.36
982.9,755.01
982.99,753.53
983.09,752.41
983.19,751.75
983.28,751.04
983.38,750.62
983.48,751.29
983.57,751.74
983.67,752.08
983.77,751.69
983.86,750.34
983.96,749.17
984.06,749.15
984.16,749.4
984.25,750.33
984.35,751.87
984.45,753.07
984.54,753.11
984.64,752.68
984.74,751.89
984.83,751.01
984.93,751.2
985.03,751.48
985.13,751.77
985.22,752.19
985.32,752.82
985.42,752.59
985.51,752.21
985.61,751.85
985.71,751.06
985.8,749.15
985.9,747.71
986,746.52
986.1,745.47
986.19,745.06
986.29,745.93
986.39,745.94
986.48,746.05
986.58,746.1
986.68,745.65
986.78,744.34
986.88,743.45
986.97,743.33
987.07,743.11
987.17,743.45
987.26,744.63
987.36,745.55
987.46,745.97
987.56,746.31
987.65,746.01
987.75,745.03
987.85,744.09
987.95,744.32
988.04,745
988.14,746.19
988.24,747.9
988.34,749.35
988.43,748.39
988.53,745.41
988.63,741.61
988.73,737.93
988.83,735.5
988.92,734.14
989.02,734.39
989.12,735.29
989.22,736.18
989.32,736
989.41,735.02
989.51,732.11
989.61,730.92
989.71,731.04
989.8,732.08
989.9,733.76
990,737.31
990.1,738.92
990.2,739.02
990.29,738.45
990.39,737.72
990.49,736.49
990.59,737.14
990.69,738.57
990.79,739.65
990.88,739.27
990.98,740.01
991.08,739.04
991.18,737.62
991.28,736.88
991.38,737.77
991.47,738.18
991.57,738.57
991.67,739.01
991.77,738.74
991.87,737.63
991.97,737.98
992.06,738.59
992.16,739.38
992.26,740.51
992.36,742.37
992.46,742.76
992.56,742.85
992.65,742.24
992.75,740.9
992.85,739.82
992.95,738.83
993.05,737.92
993.15,737.87
993.25,738.38
993.34,738.71
993.44,738.98
993.54,739.26
993.64,738.88
993.74,738.38
993.84,738.56
993.94,738.57
994.04,738.45
994.14,738.9
994.23,739.44
994.33,739.38
994.43,739.1
994.53,738.86
994.63,738.19
994.73,737.16
994.83,736.42
994.93,735.81
995.03,735.45
995.12,735.36
995.22,735.57
995.32,735.45
995.42,735.31
995.52,735.05
995.62,734.83
995.72,734.24
995.82,734.22
995.92,734.41
996.02,734.6
996.11,734.63
996.21,735.14
996.31,735.05
996.41,735.06
996.51,734.82
996.61,734.72
996.71,734.48
996.81,734.72
996.91,734.78
997.01,734.92
997.11,735.02
997.21,735.07
997.31,734.65
997.41,734.29
997.51,734.07
997.61,733.8
997.71,733.85
997.8,733.8
997.9,733.38
998,733.13
998.1,732.91
998.2,731.92
998.3,731.43
998.4,731.23
998.5,731.03
998.6,730.73
998.7,731.17
998.8,731.06
998.9,730.16
999,729.67
999.1,729.21
999.2,728.31
999.3,727.67
999.4,728.06
999.5,727.96
999.6,727.73
999.7,727.59
999.8,727.34
999.9,726.47
1000,726.41
1000.1,726.53
1000.2,726.91
1000.3,727.66
1000.4,728.41
1000.5,728.63
1000.6,728.7
1000.7,728.78
1000.8,729
1000.9,729.11
1001,729.31
1001.1,729.52
1001.2,729.63
1001.3,729.52
1001.4,729.33
1001.5,729.15
1001.6,729.01
1001.7,728.82
1001.8,728.69
1001.9,728.57
1002,728.34
1002.1,727.7
1002.21,726.94
1002.3,726.1
1002.41,725.18
1002.51,724.23
1002.61,723.59
1002.71,722.75
1002.81,721.86
1002.91,720.98
1003.01,720.06
1003.11,719
1003.21,718
1003.31,717.06
1003.41,716.12
1003.51,715.22
1003.61,714.35
1003.71,713.68
1003.81,713.3
1003.91,712.88
1004.02,712.2
1004.12,711.21
1004.22,709.91
1004.32,707.95
1004.42,704.38
1004.52,698.71
1004.62,692.02
1004.72,685.08
1004.82,678.21
1004.92,672.83
1005.03,669.78
1005.13,668.26
1005.23,667.64
1005.33,667.35
1005.43,667.73
1005.53,669.97
1005.63,674.67
1005.73,680.64
1005.83,687.4
1005.93,694.12
1006.04,699.28
1006.14,702.32
1006.24,704.24
1006.34,705.63
1006.44,707.08
1006.54,708.82
1006.64,710.38
1006.74,711.69
1006.85,712.88
1006.95,713.79
1007.05,714.43
1007.15,715.11
1007.25,715.66
1007.35,716.08
1007.46,716.42
1007.56,716.74
1007.66,716.84
1007.76,716.94
1007.86,716.96
1007.96,716.69
1008.07,715.96
1008.17,715.13
1008.27,714.3
1008.37,713.66
1008.47,713.25
1008.57,713.13
1008.67,713.21
1008.78,713.33
1008.88,713.41
1008.98,713.48
1009.08,713.72
1009.18,714.15
1009.28,714.62
1009.39,714.94
1009.49,715.17
1009.59,715.25
1009.69,715.15
1009.79,715.04
1009.9,715.06
1010,714.96
1010.1,714.44
1010.2,713.73
1010.3,713
1010.41,712.34
1010.51,712.01
1010.61,712.05
1010.71,712.12
1010.82,712.04
1010.92,711.6
1011.02,710.93
1011.12,710.53
1011.22,710.65
1011.33,710.92
1011.43,711.42
1011.53,711.99
1011.63,712.15
1011.74,711.85
1011.84,711.44
1011.94,710.51
1012.04,709.54
1012.15,708.82
1012.25,708.15
1012.35,707.47
1012.45,707.32
1012.56,707.25
1012.66,706.99
1012.76,706.77
1012.86,706.61
1012.97,706.76
1013.07,707.52
1013.17,708.43
1013.27,709.18
1013.38,709.89
1013.48,710.38
1013.58,710.26
1013.68,710.02
1013.79,709.8
1013.89,709.4
1013.99,708.68
1014.1,706.88
1014.2,704.61
1014.3,702.6
1014.41,700.98
1014.51,699.55
1014.61,699.11
1014.71,699.12
1014.82,698.93
1014.92,698.55
1015.02,698.05
1015.13,697.89
1015.23,698.52
1015.33,699.26
1015.43,700.1
1015.54,701.15
1015.64,702
1015.74,702.05
1015.85,701.77
1015.95,700.49
1016.05,698.82
1016.16,697.28
1016.26,695.86
1016.36,694.86
1016.47,694.88
1016.57,695.25
1016.67,695.36
1016.78,695.32
1016.88,694.95
1016.98,695.01
1017.09,696.19
1017.19,697.62
1017.29,699.31
1017.4,701.49
1017.5,703.09
1017.6,703.52
1017.71,703.7
1017.81,703.52
1017.91,702.05
1018.02,699.79
1018.12,697.46
1018.23,694.93
1018.33,692.45
1018.43,690.95
1018.54,690.34
1018.64,689.88
1018.74,688.85
1018.85,686.81
1018.95,684.97
1019.06,684.2
1019.16,683.8
1019.26,684.34
1019.37,686.28
1019.47,687.9
1019.58,688.31
1019.68,688.25
1019.78,688.03
1019.89,688.21
1019.99,689.15
1020.1,690.43
1020.2,692.05
1020.3,693.7
1020.41,694.48
1020.51,694.61
1020.62,694.67
1020.72,694.35
1020.83,693.96
1020.93,694.11
1021.03,694.4
1021.14,693.65
1021.24,692.14
1021.35,690.1
1021.45,687.58
1021.55,685.23
1021.66,683.81
1021.76,683.42
1021.87,683.72
1021.97,684.15
1022.08,684.15
1022.18,684.42
1022.29,685.5
1022.39,687.21
1022.49,689.51
1022.6,692.15
1022.7,694.45
1022.81,695.82
1022.91,696.32
1023.02,696.16
1023.12,695.83
1023.23,695.59
1023.33,695.36
1023.44,695.03
1023.54,694.75
1023.65,694.51
1023.75,694.14
1023.86,693.77
1023.96,693.62
1024.07,693.36
1024.17,692.95
1024.28,692.58
1024.38,692.24
1024.48,692.02
1024.59,692.05
1024.69,692.19
1024.8,692.27
1024.91,692.29
1025.01,692.1
1025.11,691.96
1025.22,692.09
1025.33,692.25
1025.43,692.4
1025.54,692.67
1025.64,692.79
1025.75,692.61
1025.85,692.42
1025.96,692.2
1026.06,691.8
1026.17,691.28
1026.27,690.78
1026.38,690.35
1026.48,689.98
1026.59,689.7
1026.69,689.51
1026.8,689.33
1026.91,689.07
1027.01,688.82
1027.12,688.79
1027.22,688.99
1027.33,689.26
1027.43,689.53
1027.54,689.81
1027.64,689.97
1027.75,689.98
1027.85,689.91
1027.96,689.92
1028.07,690.04
1028.17,690.13
1028.28,690.08
1028.38,689.31
1028.49,687.58
1028.59,685.54
1028.7,683.57
1028.81,681.71
1028.91,680.6
1029.02,680.45
1029.12,680.51
1029.23,680.39
1029.34,679.99
1029.44,679.87
1029.55,680.53
1029.65,681.56
1029.76,682.52
1029.87,683.62
1029.97,684.46
1030.08,684.4
1030.18,683.83
1030.29,683.3
1030.4,682.8
1030.5,682.42
1030.61,682.23
1030.71,682.13
1030.82,682.05
1030.93,681.96
1031.03,681.78
1031.14,681.55
1031.25,681.31
1031.35,681.23
1031.46,681.39
1031.57,681.48
1031.67,681.39
1031.78,681.14
1031.89,681.12
1031.99,681.29
1032.1,681.46
1032.2,681.42
1032.31,680.62
1032.42,678.87
1032.52,676.5
1032.63,673.6
1032.74,671.03
1032.84,669.29
1032.95,668.23
1033.06,667.51
1033.17,667.23
1033.27,666.92
1033.38,667.48
1033.48,668.6
1033.59,669.76
1033.7,671.06
1033.81,672.63
1033.91,672.76
1034.02,671.58
1034.13,670.52
1034.23,669.37
1034.34,667.65
1034.45,666.27
1034.55,665.57
1034.66,665.16
1034.77,665.25
1034.88,665.34
1034.98,666.33
1035.09,668.24
1035.2,669.79
1035.3,670.87
1035.41,672.62
1035.52,674.1
1035.63,674.78
1035.73,675.29
1035.84,675.74
1035.95,675.89
1036.06,675.74
1036.16,675.57
1036.27,675.45
1036.38,675.44
1036.48,675.39
1036.59,674.86
1036.7,673.03
1036.81,670.22
1036.91,667.64
1037.02,665.29
1037.13,663.52
1037.24,663.02
1037.34,663.16
1037.45,662.45
1037.56,661.17
1037.67,659.82
1037.78,659.71
1037.88,660.99
1037.99,663.09
1038.1,665.53
1038.21,667.88
1038.31,668.86
1038.42,668.87
1038.53,669.2
1038.64,669.75
1038.74,670.22
1038.85,670.82
1038.96,671.25
1039.07,670.57
1039.18,668.8
1039.29,666.98
1039.39,665.19
1039.5,663.58
1039.61,662.67
1039.72,662.76
1039.82,663.08
1039.93,663.28
1040.04,663.03
1040.15,663.01
1040.26,663.47
1040.37,664.05
1040.47,664.89
1040.58,666.08
1040.69,666.94
1040.8,667.2
1040.91,667.37
1041.02,667.36
1041.13,667.3
1041.23,667.21
1041.34,667.36
1041.45,667.68
1041.56,668.04
1041.67,668.39
1041.78,668.64
1041.88,668.08
1041.99,666.82
1042.1,665.41
1042.21,663.59
1042.32,661.7
1042.43,660.58
1042.54,659.97
1042.64,659.44
1042.75,659.21
1042.86,659.11
1042.97,659.26
1043.08,659.54
1043.19,659.76
1043.3,660.71
1043.41,662.11
1043.52,663.04
1043.62,663.76
1043.73,664.5
1043.84,664.65
1043.95,664.5
1044.06,664.32
1044.17,664.37
1044.28,664.53
1044.39,664.31
1044.49,663.66
1044.6,663.15
1044.71,662.55
1044.82,661.89
1044.93,661.45
1045.04,660.69
1045.15,658.69
1045.26,656.36
1045.37,653.95
1045.48,651.51
1045.59,649.2
1045.7,647.98
1045.81,647.12
1045.92,646.39
1046.03,645.59
1046.14,646.05
1046.24,647.57
1046.35,649.29
1046.46,650.18
1046.57,650.95
1046.68,652.06
1046.79,652.63
1046.9,652.93
1047.01,654.01
1047.12,655.4
1047.23,655.7
1047.34,655.42
1047.45,654.73
1047.56,654.89
1047.67,655.91
1047.78,657.1
1047.89,658.34
1048,659.92
1048.11,660.44
1048.22,659.87
1048.33,659.32
1048.44,658.9
1048.55,658.51
1048.66,658.29
1048.77,658.31
1048.88,658.28
1048.99,658.16
1049.1,657.66
1049.21,657.11
1049.32,656.89
1049.43,656.61
1049.54,656.33
1049.65,656.28
1049.76,656.03
1049.87,655.43
1049.98,654.86
1050.09,654.18
1050.2,653.92
1050.31,654.2
1050.42,654.59
1050.53,654.86
1050.64,654.98
1050.75,654.91
1050.86,654.85
1050.97,654.83
1051.08,654.9
1051.19,655.22
1051.3,655.09
1051.41,654.27
1051.53,653.48
1051.64,652.77
1051.75,652.18
1051.86,652.04
1051.97,652.36
1052.08,652.52
1052.19,652.5
1052.3,652.29
1052.41,652.45
1052.52,652.69
1052.63,652.66
1052.74,652.35
1052.85,651.49
1052.96,650.34
1053.07,649.02
1053.19,647.86
1053.3,647.1
1053.41,646.99
1053.52,646.64
1053.63,646.49
1053.74,646.3
1053.85,646.81
1053.96,647.78
1054.07,648.77
1054.19,649.75
1054.3,651
1054.41,651.56
1054.52,651.61
1054.63,651.56
1054.74,651.54
1054.85,651.54
1054.96,651.51
1055.07,651.56
1055.19,651.64
1055.3,651.67
1055.41,651.54
1055.52,651.34
1055.63,651.2
1055.74,651.06
1055.85,650.88
1055.97,650.72
1056.08,650.48
1056.19,650.2
1056.3,649.99
1056.41,649.84
1056.52,649.78
1056.64,649.79
1056.75,649.85
1056.86,649.88
1056.97,649.85
1057.08,649.72
1057.19,649.51
1057.31,649.12
1057.42,648.78
1057.53,648.42
1057.64,647.94
1057.75,647.11
1057.86,646.01
1057.98,643.69
1058.09,639
1058.2,634.39
1058.31,630.77
1058.43,627.72
1058.54,625.89
1058.65,626.4
1058.76,627.02
1058.87,627.3
1058.98,626.96
1059.1,628.44
1059.21,631.85
1059.32,635.77
1059.43,639.63
1059.55,644.03
1059.66,646.46
1059.77,646.64
1059.88,644.93
1060,641.34
1060.11,637.84
1060.22,634.64
1060.33,631.84
1060.44,630.4
1060.56,630.62
1060.67,630.48
1060.78,629.52
1060.9,628.36
1061.01,628.91
1061.12,630.85
1061.23,633.13
1061.35,636.08
1061.46,639.28
1061.57,640.7
1061.68,640.72
1061.8,640.98
1061.91,641.41
1062.02,641.79
1062.14,641.96
1062.25,641.57
1062.36,639.6
1062.47,637.88
1062.59,636.29
1062.7,634.84
1062.81,633.88
1062.93,633.96
1063.04,633.61
1063.15,632.98
1063.26,631.94
1063.38,632.51
1063.49,634.15
1063.6,635.81
1063.72,637.59
1063.83,639.88
1063.94,640.94
1064.06,641.26
1064.17,641.48
1064.28,641.66
1064.4,641.74
1064.51,641.57
1064.62,641.27
1064.74,641.04
1064.85,640.83
1064.96,640.69
1065.08,640.53
1065.19,640.32
1065.3,639.99
1065.42,639.6
1065.53,638.63
1065.64,636.2
1065.76,632.48
1065.87,629.43
1065.98,626.6
1066.1,624.31
1066.21,623.36
1066.32,623.62
1066.44,623.34
1066.55,622.72
1066.67,622.31
1066.78,623.86
1066.89,626.53
1067.01,629.29
1067.12,632.22
1067.24,634.96
1067.35,636.04
1067.46,636.28
1067.58,636.28
1067.69,636
1067.81,634.98
1067.92,632.17
1068.03,629.09
1068.15,624.92
1068.26,621.39
1068.38,618.61
1068.49,616.62
1068.6,612.48
1068.72,607.83
1068.83,602.92
1068.95,599.08
1069.06,595.22
1069.18,595.55
1069.29,598.31
1069.4,601.03
1069.52,602.19
1069.63,604.95
1069.75,608.34
1069.86,612.02
1069.98,615.47
1070.09,620.8
1070.2,625.53
1070.32,626.66
1070.44,627.17
1070.55,628.02
1070.66,627.49
1070.78,626.81
1070.89,627.25
1071.01,627.34
1071.12,627.16
1071.24,626.25
1071.35,625.94
1071.47,626.43
1071.58,626.94
1071.7,627.59
1071.81,628.97
1071.93,629.84
1072.04,629.72
1072.16,628.85
1072.27,626.73
1072.39,623.65
1072.5,620.33
1072.62,617.07
1072.73,614.61
1072.85,613.27
1072.96,612.89
1073.08,612.52
1073.19,612.32
1073.31,612.08
1073.42,613.32
1073.54,615.72
1073.65,619.03
1073.77,622.3
1073.88,625.7
1074,627.62
1074.11,627.76
1074.23,627.1
1074.34,626.27
1074.46,624.03
1074.58,619.97
1074.69,617.13
1074.81,614.44
1074.92,611.21
1075.04,608.89
1075.15,609.22
1075.27,609.39
1075.39,609.3
1075.5,609.63
1075.62,612.4
1075.73,615.29
1075.85,617.56
1075.96,620.54
1076.08,624.39
1076.19,625.79
1076.31,626.2
1076.43,626.49
1076.54,626.21
1076.66,625.4
1076.77,624.87
1076.89,624.52
1077.01,624.39
1077.12,624.04
1077.24,623.95
1077.35,624.09
1077.47,624.57
1077.59,625.27
1077.7,625.94
1077.82,625.8
1077.94,624.46
1078.05,622.19
1078.17,619.18
1078.28,614.39
1078.4,610.77
1078.52,608.33
1078.63,606.36
1078.75,605.06
1078.86,605.78
1078.98,606.4
1079.1,607.51
1079.21,608.07
1079.33,610.84
1079.45,614.39
1079.56,617.42
1079.68,619.72
1079.8,622.51
1079.91,622.82
1080.03,622.4
1080.15,621.83
1080.26,621.58
1080.38,621.31
1080.5,620.7
1080.61,618.81
1080.73,614.39
1080.85,610.49
1080.96,607.22
1081.08,604.63
1081.2,603.2
1081.31,603.87
1081.43,602.99
1081.55,601.38
1081.67,597.87
1081.78,597.35
1081.9,598.66
1082.02,600.88
1082.13,602.34
1082.25,602.67
1082.37,599.14
1082.48,595.24
1082.6,590.81
1082.72,588.61
1082.84,590.14
1082.95,592.66
1083.07,593.5
1083.19,594.18
1083.31,595.3
1083.42,597.85
1083.54,601.07
1083.66,605.53
1083.78,610.71
1083.89,613.58
1084.01,612.76
1084.13,612.36
1084.25,611.71
1084.36,610.91
1084.48,610.7
1084.6,612.08
1084.72,612.41
1084.83,612.28
1084.95,611.78
1085.07,612.64
1085.19,613.84
1085.31,615.11
1085.42,616.5
1085.54,618.24
1085.66,618.54
1085.78,617.91
1085.89,616.16
1086.01,614.62
1086.13,613.23
1086.25,611.71
1086.37,609.28
1086.48,604.22
1086.6,598.1
1086.72,592.43
1086.84,586.71
1086.96,583.41
1087.07,584.3
1087.19,586.1
1087.31,587.06
1087.43,587.16
1087.55,588.63
1087.67,592.34
1087.78,596.25
1087.9,599.89
1088.02,603.83
1088.14,604.1
1088.26,602.14
1088.38,600.02
1088.49,598.49
1088.61,597.61
1088.73,597.31
1088.85,596.67
1088.97,596.23
1089.09,595.73
1089.21,596.42
1089.32,598.52
1089.44,600.66
1089.56,602.5
1089.68,604.31
1089.8,605.53
1089.92,606.04
1090.04,606.21
1090.16,606.04
1090.28,606.93
1090.39,607.69
1090.51,608.33
1090.63,609.17
1090.75,610.27
1090.87,610.18
1090.99,608.84
1091.11,606.22
1091.23,604.42
1091.35,602.81
1091.46,601.18
1091.58,600.46
1091.7,600.97
1091.82,600.54
1091.94,599.62
1092.06,598.69
1092.18,598.56
1092.3,598.68
1092.42,598.5
1092.54,598.47
1092.66,598.44
1092.78,597.15
1092.9,595.14
1093.02,592.63
1093.14,589
1093.26,583.88
1093.37,576.57
1093.49,569.04
1093.61,562.21
1093.73,556.58
1093.85,552.76
1093.97,551.5
1094.09,551.25
1094.21,551.28
1094.33,551.8
1094.45,554.77
1094.57,560.01
1094.69,566.32
1094.81,572.67
1094.93,578.26
1095.05,582.16
1095.17,583.87
1095.29,582.9
1095.41,582.64
1095.53,583.29
1095.65,583.29
1095.77,582.82
1095.89,583.68
1096.01,583.92
1096.13,581.95
1096.25,579.54
1096.37,579.23
1096.49,579.54
1096.61,579.1
1096.73,580.35
1096.85,581.82
1096.97,581.26
1097.09,580.18
1097.21,581.54
1097.33,583.24
1097.45,583.53
1097.57,583.24
1097.69,583.45
1097.81,580.56
1097.94,577.54
1098.06,575.52
1098.18,574.73
1098.3,572.93
1098.42,571.96
1098.54,571.9
1098.66,573.42
1098.78,575.08
1098.9,578.58
1099.02,582.34
1099.14,585.83
1099.26,588.08
1099.38,590.3
1099.51,591.39
1099.63,592.25
1099.75,592.5
1099.87,592.45
1099.99,592.11
1100.11,591.23
1100.23,590.77
1100.35,590.29
1100.47,590.47
1100.59,590.42
1100.72,590.65
1100.84,590.17
1100.96,589.08
1101.08,587.49
1101.2,585.97
1101.32,582.71
1101.44,579.96
1101.56,577.59
1101.69,575.35
1101.81,572.95
1101.93,572.27
1102.05,572.7
1102.17,573.67
1102.29,574.07
1102.41,575.75
1102.54,578.23
1102.66,580.38
1102.78,582.42
1102.9,585.24
1103.02,587.05
1103.14,588.36
1103.27,588.67
1103.39,587.78
1103.51,586.92
1103.63,586.69
1103.75,586.15
1103.88,586.09
1104,586.49
1104.12,586.5
1104.24,585.73
1104.36,584.28
1104.48,583.39
1104.61,583.43
1104.73,583.68
1104.85,584.36
1104.97,585.35
1105.09,585.28
1105.22,584.91
1105.34,584.28
1105.46,583.82
1105.58,584.08
1105.7,584.57
1105.83,584.87
1105.95,584.89
1106.07,584.38
1106.19,583.56
1106.32,582.87
1106.44,581.85
1106.56,581.81
1106.68,582
1106.81,581.97
1106.93,581.58
1107.05,581.37
1107.18,581.14
1107.3,581.04
1107.42,580.71
1107.54,580.85
1107.67,581.27
1107.79,581.05
1107.91,580.8
1108.03,581.13
1108.16,581.62
1108.28,581.88
1108.4,581.84
1108.53,581.61
1108.65,580.94
1108.77,580.32
1108.89,579.99
1109.02,580.5
1109.14,580.86
1109.26,581.11
1109.39,581.15
1109.51,581.31
1109.63,580.5
1109.76,580.21
1109.88,580.78
1110,581.33
1110.12,581.2
1110.25,581.44
1110.37,581.44
1110.49,581.1
1110.62,579.97
1110.74,578.99
1110.86,578.67
1110.99,577.85
1111.11,577.16
1111.23,577.4
1111.36,577.25
1111.48,576.02
1111.6,574.43
1111.73,573.4
1111.85,572.22
1111.98,571.91
1112.1,572.53
1112.22,573.56
1112.35,573.73
1112.47,573.47
1112.59,572.03
1112.72,571.22
1112.84,570.59
1112.97,570.23
1113.09,570.21
1113.21,571.17
1113.34,571.71
1113.46,572.3
1113.59,571.85
1113.71,572.48
1113.83,573.79
1113.96,574.7
1114.08,575.65
1114.21,577.09
1114.33,577.62
1114.45,576.84
1114.58,575.95
1114.7,575.37
1114.83,574.94
1114.95,573.85
1115.08,573.08
1115.2,572.27
1115.32,571.1
1115.45,569.92
1115.57,569.47
1115.7,569.58
1115.82,569.72
1115.95,570.12
1116.07,571.08
1116.2,571.9
1116.32,571.95
1116.44,572.77
1116.57,573.55
1116.69,574.18
1116.82,574.89
1116.94,575.74
1117.07,575.79
1117.19,575.6
1117.32,574.98
1117.44,574.18
1117.57,573.74
1117.69,572.94
1117.82,572.85
1117.94,572.93
1118.07,572.74
1118.19,572.31
1118.32,570.45
1118.44,567.97
1118.57,565.47
1118.69,563.1
1118.82,561.45
1118.94,561.25
1119.07,561.35
1119.19,560.83
1119.32,560.56
1119.44,561.01
1119.57,561.53
1119.69,561.75
1119.82,562.46
1119.95,562.73
1120.07,561.73
1120.2,560.59
1120.32,560.55
1120.45,560.61
1120.57,561.28
1120.7,562.3
1120.82,563.59
1120.95,563.93
1121.08,564.44
1121.2,564.85
1121.33,565.33
1121.45,565.66
1121.58,566.4
1121.7,566.87
1121.83,567.17
1121.96,567.46
1122.08,567.88
1122.21,568.15
1122.33,568.21
1122.46,567.72
1122.59,567.22
1122.71,566.58
1122.84,566.12
1122.96,566.02
1123.09,566.41
1123.22,566.8
1123.34,566.93
1123.47,566.89
1123.59,567.02
1123.72,567.01
1123.85,566.77
1123.97,565.92
1124.1,564.74
1124.23,563.45
1124.35,562.3
1124.48,561.31
1124.61,560.42
1124.73,559.2
1124.86,556.68
1124.99,552.97
1125.11,549.31
1125.24,546.49
1125.37,544.32
1125.49,543.07
1125.62,542.58
1125.75,542.43
1125.87,542.81
1126,544.56
1126.13,547.87
1126.25,552.04
1126.38,555.59
1126.51,558.18
1126.63,559.5
1126.76,559.81
1126.89,559.75
1127.02,559.54
1127.14,559.25
1127.27,558.32
1127.4,556.64
1127.52,554.94
1127.65,553.71
1127.78,552.92
1127.9,553
1128.03,553.91
1128.16,554.86
1128.29,555.66
1128.41,556.61
1128.54,556.62
1128.67,555.99
1128.8,555.17
1128.92,553.99
1129.05,552.05
1129.18,550.27
1129.31,548.7
1129.43,546.62
1129.56,545.06
1129.69,545.08
1129.82,545.65
1129.94,546.38
1130.07,548.06
1130.2,549.85
1130.33,550.49
1130.45,551.24
1130.58,552.45
1130.71,553.15
1130.84,553.5
1130.97,553.76
1131.09,553.58
1131.22,552.74
1131.35,552.27
1131.48,552.28
1131.61,552.56
1131.73,553.12
1131.86,553.56
1131.99,553.83
1132.12,554.02
1132.25,554.28
1132.38,554.19
1132.5,553.55
1132.63,552.22
1132.76,550.22
1132.89,547.79
1133.02,545.73
1133.15,544.33
1133.27,543.48
1133.4,542.57
1133.53,542.09
1133.66,542.29
1133.79,543.09
1133.92,544.42
1134.04,546.66
1134.17,548.93
1134.3,550.53
1134.43,551.6
1134.56,552.55
1134.69,553.01
1134.82,552.92
1134.94,552.43
1135.07,551.68
1135.2,550.48
1135.33,549.18
1135.46,548.11
1135.59,547.51
1135.72,547.27
1135.85,547.39
1135.98,548.01
1136.1,549.05
1136.23,550.12
1136.36,551.16
1136.49,552.12
1136.62,552.6
1136.75,552.43
1136.88,551.28
1137.01,549.35
1137.14,547.21
1137.27,545.14
1137.4,543.39
1137.53,542
1137.66,540.18
1137.79,538.19
1137.92,536.73
1138.05,536.17
1138.17,536.51
1138.3,537.84
1138.43,539.09
1138.56,539.08
1138.69,538.53
1138.82,538.53
1138.95,538.72
1139.08,539.31
1139.21,540.38
1139.34,540.71
1139.47,540
1139.6,539.7
1139.73,539.98
1139.86,539.41
1139.99,538.54
1140.12,537.59
1140.25,536.04
1140.38,534.18
1140.51,533.14
1140.64,532.62
1140.77,532.05
1140.9,531.87
1141.03,532.54
1141.16,533.9
1141.29,535.69
1141.42,537.7
1141.55,539.74
1141.68,541.01
1141.81,540.96
1141.94,540.28
1142.07,539.71
1142.2,538.88
1142.33,537.61
1142.46,537.23
1142.6,537.22
1142.73,537.01
1142.86,537.33
1142.99,538.53
1143.12,539.8
1143.25,541.04
1143.38,541.63
1143.51,540.95
1143.64,539.41
1143.77,537.83
1143.9,536.18
1144.03,535.05
1144.17,534.4
1144.3,533.76
1144.43,533.37
1144.56,533.78
1144.69,534.85
1144.82,536.23
1144.95,537.7
1145.08,538.86
1145.21,539.47
1145.34,539.69
1145.47,539.79
1145.61,540.31
1145.74,541.21
1145.87,541.83
1146,542.3
1146.13,542.84
1146.26,543.12
1146.4,543.28
1146.53,543.7
1146.66,543.97
1146.79,543.72
1146.92,543.27
1147.05,542.74
1147.18,542.09
1147.31,541.61
1147.45,541.32
1147.58,540.97
1147.71,540.37
1147.84,539.89
1147.97,539.39
1148.11,538.81
1148.24,538.33
1148.37,537.87
1148.5,537.35
1148.63,537.06
1148.77,537.18
1148.9,537.3
1149.03,537.15
1149.16,537.05
1149.29,537.05
1149.43,537.04
1149.56,537.12
1149.69,537.39
1149.82,537.11
1149.95,536.25
1150.09,535.59
1150.22,535.32
1150.35,535.25
1150.48,535.55
1150.62,536.02
1150.75,536.11
1150.88,535.93
1151.01,535.94
1151.15,535.94
1151.28,535.89
1151.41,535.66
1151.54,535.12
1151.68,534.24
1151.81,533.08
1151.94,532.02
1152.07,531.22
1152.21,530.65
1152.34,530.26
1152.47,530.29
1152.6,530.68
1152.74,531.15
1152.87,531.88
1153,532.72
1153.14,533.48
1153.27,534.13
1153.4,534.82
1153.54,535.32
1153.67,535.43
1153.8,535.43
1153.94,535.43
1154.07,535.38
1154.2,535.26
1154.33,535.29
1154.47,535.3
1154.6,535.13
1154.73,535.07
1154.87,534.95
1155,534.3
1155.14,533.42
1155.27,532.67
1155.4,531.62
1155.54,530.4
1155.67,529.78
1155.8,529.54
1155.94,529.27
1156.07,529.39
1156.2,529.96
1156.34,530.56
1156.47,531.17
1156.6,531.73
1156.74,531.87
1156.87,531.7
1157.01,531.34
1157.14,530.91
1157.27,530.58
1157.41,530.36
1157.54,530.12
1157.68,530.1
1157.81,530.35
1157.94,530.54
1158.08,530.45
1158.21,530.2
1158.35,529.93
1158.48,529.27
1158.61,528.1
1158.75,526.49
1158.88,523.91
1159.02,520.38
1159.15,517.4
1159.29,515.35
1159.42,514.16
1159.56,514.01
1159.69,514.8
1159.82,515.48
1159.96,516.76
1160.09,518.92
1160.23,520.3
1160.36,520.53
1160.5,519.99
1160.63,517.36
1160.77,513.25
1160.9,510.24
1161.04,508.25
1161.17,506.35
1161.31,506.34
1161.44,507.6
1161.57,508.78
1161.71,511.18
1161.84,515.02
1161.98,518.31
1162.11,521.03
1162.25,523.66
1162.39,524.79
1162.52,524.67
1162.66,524.5
1162.79,524.27
1162.93,524
1163.06,524.08
1163.2,524.21
1163.33,522.9
1163.47,520.72
1163.6,518.96
1163.74,517.13
1163.87,515.41
1164.01,514.83
1164.14,514.85
1164.28,514
1164.42,514.01
1164.55,515.02
1164.69,516.3
1164.82,517.76
1164.96,519.4
1165.09,520.17
1165.23,519.75
1165.36,518.59
1165.5,516.75
1165.64,514.96
1165.77,513.42
1165.91,512.43
1166.05,512.29
1166.18,513
1166.32,513.76
1166.45,514.18
1166.59,514.63
1166.72,515.31
1166.86,515.82
1167,516.37
1167.13,517.14
1167.27,517.53
1167.41,517.33
1167.54,517.61
1167.68,518.37
1167.81,519.08
1167.95,519.79
1168.09,520.47
1168.22,520.55
1168.36,519.9
1168.5,517.78
1168.63,514.36
1168.77,511.5
1168.91,508.86
1169.04,506.56
1169.18,505.77
1169.32,506.36
1169.45,506.02
1169.59,506.7
1169.73,508.76
1169.86,511
1170,513.22
1170.14,516.06
1170.28,517.72
1170.41,517.89
1170.55,517.95
1170.69,518.06
1170.82,517.95
1170.96,517.93
1171.1,518.07
1171.23,518.01
1171.37,517.95
1171.51,517.98
1171.65,517.88
1171.78,517.87
1171.92,517.84
1172.06,517.46
1172.2,516.99
1172.33,516.61
1172.47,516.11
1172.61,515.76
1172.74,515.67
1172.88,515.52
1173.02,515.5
1173.16,515.76
1173.3,516.05
1173.43,516.38
1173.57,516.68
1173.71,516.64
1173.85,516.35
1173.98,516.02
1174.12,515.5
1174.26,514.68
1174.4,513.44
1174.54,512.07
1174.67,510.65
1174.81,508.5
1174.95,505.35
1175.09,502.15
1175.23,499.07
1175.36,496.62
1175.5,495.7
1175.64,496.35
1175.78,497.61
1175.92,499.67
1176.06,502.55
1176.19,505.63
1176.33,508.84
1176.47,511.85
1176.61,513.66
1176.75,513.59
1176.89,512.01
1177.03,510.3
1177.16,508.76
1177.3,507.37
1177.44,506.16
1177.58,505.82
1177.72,505.02
1177.86,503.83
1177.99,502.42
1178.13,501.71
1178.27,500.89
1178.41,500.69
1178.55,501.12
1178.69,502.08
1178.83,502.58
1178.97,504.25
1179.11,506.56
1179.24,508.7
1179.38,510.79
1179.52,512.77
1179.66,513.07
1179.8,512.3
1179.94,511.57
1180.08,510.85
1180.22,510.37
1180.36,510.29
1180.5,510.15
1180.64,509.55
1180.78,508.61
1180.92,507.9
1181.06,507.27
1181.19,506.79
1181.33,506.65
1181.47,506.71
1181.61,506.16
1181.75,505.88
1181.89,506.24
1182.03,506.56
1182.17,506.17
1182.31,503.79
1182.45,498.83
1182.59,493.58
1182.73,488.72
1182.87,484.91
1183.01,483.38
1183.15,483.92
1183.29,483.91
1183.43,485.45
1183.57,488.13
1183.71,491.54
1183.85,495.27
1183.99,499.23
1184.13,501.31
1184.27,501.99
1184.41,501.61
1184.55,501.71
1184.69,502.42
1184.83,503.12
1184.97,504.01
1185.11,505.34
1185.26,505.97
1185.4,505.89
1185.54,505.89
1185.68,505.57
1185.82,505.03
1185.96,504.5
1186.1,504.22
1186.24,503.88
1186.38,503.82
1186.52,503.78
1186.66,503.82
1186.8,503.77
1186.94,503.94
1187.08,504.24
1187.22,504.62
1187.37,504.85
1187.51,504.64
1187.65,503.84
1187.79,501.53
1187.93,496.86
1188.07,491.57
1188.21,487.22
1188.35,483.16
1188.49,480.03
1188.64,478.89
1188.78,477.91
1188.92,477.07
1189.06,478.52
1189.2,481.07
1189.34,484.36
1189.48,488.19
1189.63,491.79
1189.77,493.33
1189.91,494.62
1190.05,495.76
1190.19,497.6
1190.33,499.28
1190.48,500.7
1190.62,501.7
1190.76,502.57
1190.9,502.64
1191.04,502.37
1191.19,502.28
1191.33,502.15
1191.47,501.99
1191.61,501.78
1191.75,501.39
1191.9,500.9
1192.04,500.47
1192.18,499.94
1192.32,499.4
1192.46,499.03
1192.61,498.66
1192.75,498.53
1192.89,498.68
1193.03,498.93
1193.18,499.05
1193.32,499.28
1193.46,499.44
1193.6,499.41
1193.74,499.34
1193.89,499.4
1194.03,499.27
1194.17,498.94
1194.31,498.76
1194.46,498.26
1194.6,496.94
1194.74,496.01
1194.89,495.14
1195.03,493.78
1195.17,492.42
1195.31,491.95
1195.46,490.83
1195.6,490.25
1195.74,490.59
1195.89,491.36
1196.03,491.84
1196.17,493.01
1196.31,493.73
1196.46,493.8
1196.6,493.55
1196.74,492.29
1196.89,488.54
1197.03,484.93
1197.18,481.67
1197.32,478.99
1197.46,477.52
1197.6,478.12
1197.75,477.62
1197.89,477.18
1198.04,475.78
1198.18,475.35
1198.32,475.12
1198.47,475.35
1198.61,473.93
1198.75,471.06
1198.9,466.99
1199.04,465.25
1199.19,465.52
1199.33,467.49
1199.47,471.67
1199.62,475.71
1199.76,479.03
1199.9,482.08
1200.05,485.04
1200.19,488.14
1200.34,491.64
1200.48,493.2
1200.62,493.14
1200.77,492.83
1200.91,492.3
1201.06,491.94
1201.2,491.8
1201.35,491.87
1201.49,491.86
1201.63,492.1
1201.78,492.11
1201.92,491.85
1202.07,491.65
1202.21,491.41
1202.36,490.75
1202.5,489.48
1202.65,486.25
1202.79,480.57
1202.94,475.77
1203.08,471.55
1203.22,467.92
1203.37,466.36
1203.51,466.6
1203.66,465.74
1203.8,467.39
1203.95,470.72
1204.09,474.36
1204.24,478.78
1204.38,483.47
1204.53,485.38
1204.67,485.9
1204.82,486.19
1204.96,486.05
1205.11,486.13
1205.26,485.98
1205.4,485.61
1205.55,485.18
1205.69,485.16
1205.84,484.96
1205.98,485.15
1206.13,485.48
1206.27,486.02
1206.42,486.61
1206.56,487.23
1206.71,487.61
1206.85,487.71
1207,487.59
1207.15,487.28
1207.29,486.68
1207.44,485.63
1207.58,484.42
1207.73,481.59
1207.88,475.81
1208.02,469.17
1208.17,463.59
1208.31,458.29
1208.46,454.93
1208.6,454.47
1208.75,454.75
1208.9,455.96
1209.04,460.09
1209.19,465.23
1209.34,470.63
1209.48,476.4
1209.63,480.43
1209.78,480.55
1209.92,477.83
1210.07,475.47
1210.21,473.35
1210.36,471.43
1210.51,470.23
1210.65,470.08
1210.8,469
1210.95,469.5
1211.09,471.05
1211.24,473
1211.39,475.25
1211.53,477.48
1211.68,478.4
1211.83,478.78
1211.97,479.07
1212.12,479.54
1212.27,480.4
1212.42,480.65
1212.56,480.67
1212.71,480.57
1212.86,480.36
1213,480.08
1213.15,479.92
1213.3,479.45
1213.44,479.08
1213.59,478.84
1213.74,478.76
1213.89,478.87
1214.03,479.16
1214.18,479.35
1214.33,479.65
1214.48,479.95
1214.62,480.11
1214.77,480.13
1214.92,480.08
1215.07,479.87
1215.21,479.62
1215.36,479.35
1215.51,479.19
1215.66,479.13
1215.81,479.08
1215.95,479.03
1216.1,478.98
1216.25,478.85
1216.4,478.71
1216.55,478.65
1216.69,478.58
1216.84,478.38
1216.99,478.1
1217.14,477.87
1217.29,477.57
1217.43,477.24
1217.58,477.08
1217.73,476.96
1217.88,476.64
1218.03,476.37
1218.18,476.21
1218.32,475.92
1218.47,475.53
1218.62,475.05
1218.77,474.59
1218.92,474.08
1219.07,473.77
1219.21,473.58
1219.36,473.64
1219.51,473.65
1219.66,473.98
1219.81,474.3
1219.96,474.71
1220.11,475.05
1220.26,475.47
1220.41,475.47
1220.55,475.35
1220.7,475.05
1220.85,474.63
1221,474.14
1221.15,473.65
1221.3,473.16
1221.45,472.76
1221.6,472.65
1221.75,472.45
1221.9,472.32
1222.05,472.23
1222.19,472.05
1222.34,471.36
1222.49,471
1222.64,470.58
1222.79,469.97
1222.94,469.56
1223.09,469.68
1223.24,469.49
1223.39,469.69
1223.54,470.25
1223.69,470.72
1223.84,471.19
1223.99,471.75
1224.14,471.79
1224.29,471.56
1224.44,471.17
1224.59,470.73
1224.74,470.25
1224.89,469.9
1225.04,469.57
1225.19,469.54
1225.34,469.49
1225.49,469.68
1225.64,469.75
1225.79,469.66
1225.94,469.46
1226.09,469.17
1226.24,468.75
1226.39,468.26
1226.54,467
1226.69,463.97
1226.84,461.76
1226.99,459.76
1227.15,458.1
1227.3,457.38
1227.45,458.24
1227.6,457.98
1227.75,459.17
1227.9,460.98
1228.05,462.81
1228.2,464.84
1228.35,467.27
1228.5,467.99
1228.65,467.83
1228.8,467.67
1228.95,467.45
1229.1,467.26
1229.26,467.04
1229.41,466.9
1229.56,466.55
1229.71,466.06
1229.86,465.65
1230.01,465.19
1230.16,464.74
1230.31,464.52
1230.47,464.5
1230.62,464.3
1230.77,464.28
1230.92,464.03
1231.07,463.79
1231.22,463.6
1231.38,463.32
1231.53,462.59
1231.68,462.02
1231.83,461.36
1231.98,460.76
1232.13,460.45
1232.29,460.57
1232.44,460.66
1232.59,460.97
1232.74,461.24
1232.89,461.46
1233.05,461.69
1233.2,461.99
1233.35,462.1
1233.5,462.07
1233.65,461.72
1233.81,461.07
1233.96,460.6
1234.11,460.02
1234.26,459.45
1234.42,459.04
1234.57,458.92
1234.72,458.39
1234.87,458.31
1235.03,458.37
1235.18,458.55
1235.33,458.76
1235.48,459.41
1235.64,459.61
1235.79,459.8
1235.94,460.02
1236.09,460.27
1236.25,460.28
1236.4,460.28
1236.55,460.28
1236.7,460.23
1236.86,460.08
1237.01,459.94
1237.16,459.8
1237.32,459.71
1237.47,459.71
1237.62,459.73
1237.78,459.7
1237.93,459.59
1238.08,459.47
1238.24,459.22
1238.39,458.8
1238.54,457.9
1238.7,457.14
1238.85,456.3
1239,455.33
1239.16,453.73
1239.31,452.93
1239.46,451.95
1239.62,451.51
1239.77,451.48
1239.93,452.3
1240.08,452.54
1240.23,453.57
1240.39,454.37
1240.54,455.06
1240.69,455.71
1240.85,456.66
1241,456.87
1241.16,456.58
1241.31,456
1241.46,455.62
1241.62,455.26
1241.77,454.63
1241.93,453.55
1242.08,452.74
1242.24,451.58
1242.39,450.79
1242.55,450.44
1242.7,450.23
1242.85,448.52
1243.01,447.89
1243.16,447.24
1243.32,446.73
1243.47,446.77
1243.63,448.02
1243.78,447.98
1243.94,448.74
1244.09,449.79
1244.24,450.95
1244.4,452.24
1244.56,453.87
1244.71,454.25
1244.86,454.11
1245.02,453.86
1245.18,453.64
1245.33,453.2
1245.48,452.58
1245.64,451.94
1245.8,451.4
1245.95,450.91
1246.11,450.69
1246.26,450.68
1246.42,450.45
1246.57,449.95
1246.73,449.71
1246.88,449.5
1247.04,449.47
1247.19,449.64
1247.35,449.97
1247.51,449.88
1247.66,450.23
1247.82,450.58
1247.97,450.92
1248.13,451.27
1248.28,451.82
1248.44,451.85
1248.59,451.78
1248.75,451.69
1248.91,451.59
1249.06,451.38
1249.22,451.22
1249.38,451.04
1249.53,450.82
1249.69,450.63
1249.84,450.39
1250,450.06
1250.16,449.9
1250.31,449.79
1250.47,449.49
1250.63,448.95
1250.78,448.53
1250.94,447.97
1251.09,447.31
1251.25,446.72
1251.41,446.2
1251.56,445.38
1251.72,444.22
1251.88,443.56
1252.04,443.12
1252.19,442.95
1252.35,443
1252.51,443.59
1252.66,443.51
1252.82,443.93
1252.98,444.54
1253.13,445.13
1253.29,445.5
1253.45,446.13
1253.6,446.06
1253.76,445.81
1253.92,445.67
1254.08,445.69
1254.23,445.73
1254.39,445.73
1254.55,445.48
1254.7,445.38
1254.86,445.27
1255.02,445.14
1255.18,444.87
1255.33,444.72
1255.49,444.34
1255.65,444.11
1255.81,443.68
1255.97,443.54
1256.12,443.31
1256.28,443.14
1256.44,442.59
1256.6,442.37
1256.76,441.99
1256.91,442.1
1257.07,442.17
1257.23,442.51
1257.39,442.7
1257.55,443.26
1257.7,443.24
1257.86,443.21
1258.02,442.9
1258.18,442.58
1258.34,442.19
1258.49,442.01
1258.65,441.67
1258.81,441.76
1258.97,442.04
1259.13,442.35
1259.29,443.04
1259.45,443.86
1259.6,444.24
1259.76,444.23
1259.92,444.1
1260.08,443.79
1260.24,443.51
1260.4,443.36
1260.56,443.47
1260.72,443.35
1260.88,443.04
1261.03,442.39
1261.19,441.46
1261.35,440.76
1261.51,440.1
1261.67,439.44
1261.83,438.97
1261.99,438.85
1262.15,438.9
1262.31,439.56
1262.47,440.34
1262.63,441.26
1262.79,442.16
1262.94,442.78
1263.1,442.89
1263.26,442.62
1263.42,441.39
1263.58,440.37
1263.74,439.5
1263.9,438.67
1264.06,438.16
1264.22,438.3
1264.38,437.03
1264.54,436.77
1264.7,436.84
1264.86,436.89
1265.02,437.21
1265.18,438.56
1265.34,438.46
1265.5,438.71
1265.66,439.18
1265.82,439.63
1265.98,440.01
1266.14,440.36
1266.3,439.43
1266.46,438.48
1266.63,437.49
1266.79,436.67
1266.94,436.14
1267.11,436.03
1267.27,435.41
1267.43,434.44
1267.59,433.64
1267.75,433.04
1267.91,432.39
1268.07,432
1268.23,432.02
1268.39,431.45
1268.55,431.63
1268.71,432.42
1268.88,433.33
1269.04,434.53
1269.2,436.22
1269.36,436.83
1269.52,437.13
1269.68,437.43
1269.84,437.53
1270,437.62
1270.16,437.82
1270.32,437.85
1270.49,437.95
1270.65,437.97
1270.81,437.75
1270.97,437.56
1271.13,437.39
1271.29,437.01
1271.46,436.67
1271.62,436.47
1271.78,436.18
1271.94,436.07
1272.1,436.06
1272.27,435.94
1272.43,435.84
1272.59,435.71
1272.75,435.45
1272.91,435.05
1273.07,434.63
1273.24,434.12
1273.4,433.56
1273.56,432.91
1273.72,432.5
1273.89,432.12
1274.05,431.88
1274.21,431.9
1274.37,432.05
1274.54,432.11
1274.7,432.5
1274.86,432.89
1275.02,433.22
1275.19,433.57
1275.35,433.85
1275.51,433.89
1275.67,433.93
1275.84,433.92
1276,433.83
1276.16,433.77
1276.32,433.66
1276.49,433.54
1276.65,433.42
1276.81,433.29
1276.98,433.12
1277.14,432.93
1277.3,432.69
1277.46,432.43
1277.63,432.17
1277.79,431.9
1277.95,431.64
1278.12,431.31
1278.28,430.99
1278.44,430.38
1278.61,429.85
1278.77,429.3
1278.94,428.74
1279.1,428.06
1279.26,427.63
1279.43,426.91
1279.59,426.39
1279.75,425.92
1279.92,425.44
1280.08,424.68
1280.25,423.38
1280.41,421.57
1280.57,419.58
1280.74,417.09
1280.9,414.1
1281.07,410.22
1281.23,403.94
1281.39,396.04
1281.56,388.94
1281.72,382.37
1281.89,377.37
1282.05,375.09
1282.22,374.79
1282.38,375.72
1282.55,379.8
1282.71,385.28
1282.87,391.92
1283.04,399.34
1283.2,405.85
1283.37,409.94
1283.53,412.74
1283.7,414.78
1283.86,416.44
1284.03,417.88
1284.19,418.73
1284.36,419.66
1284.52,420.22
1284.69,420.4
1284.85,420.56
1285.02,420.91
1285.18,420.8
1285.35,420.93
1285.51,421.14
1285.68,421.18
1285.84,421.43
1286.01,422.07
1286.17,422.44
1286.34,422.88
1286.51,423.35
1286.67,423.67
1286.84,423.96
1287,424.34
1287.17,424.54
1287.33,424.57
1287.5,423.79
1287.66,423.37
1287.83,423.02
1288,422.52
1288.16,422.08
1288.33,422.37
1288.49,422.07
1288.66,422.24
1288.83,422.64
1288.99,422.96
1289.16,422.92
1289.32,423.06
1289.49,421.48
1289.66,420.03
1289.82,418.92
1289.99,418.1
1290.16,417.02
1290.32,417.3
1290.49,416.56
1290.66,416.88
1290.82,417.38
1290.99,418.47
1291.16,419.19
1291.32,420.5
1291.49,420.63
1291.66,420.86
1291.82,421.21
1291.99,421.61
1292.16,422.03
1292.32,422.42
1292.49,422.54
1292.66,422.57
1292.82,422.36
1292.99,421.65
1293.16,420.75
1293.33,419.81
1293.49,418.81
1293.66,417.92
1293.83,417.51
1294,417.52
1294.16,417.95
1294.33,418.58
1294.5,419.19
1294.67,419.83
1294.83,420.34
1295,420.48
1295.17,420.52
1295.34,420.7
1295.51,420.83
1295.67,420.87
1295.84,420.9
1296.01,420.92
1296.18,420.91
1296.34,420.82
1296.51,420.41
1296.68,419.96
1296.85,419.51
1297.02,418.81
1297.19,417.71
1297.35,416.78
1297.52,415.9
1297.69,415.23
1297.86,414.84
1298.03,414.98
1298.19,415.49
1298.36,416.41
1298.53,417.17
1298.7,417.91
1298.87,418.59
1299.04,418.99
1299.21,418.95
1299.38,418.8
1299.55,418.55
1299.71,418.26
1299.88,417.94
1300.05,417.62
1300.22,417.3
1300.39,417.05
1300.56,416.86
1300.73,416.65
1300.9,416.18
1301.07,415.64
1301.24,415.1
1301.41,414.43
1301.57,413.71
1301.74,413.28
1301.91,413.04
1302.08,412.85
1302.25,412.78
1302.42,412.59
1302.59,412.24
1302.76,411.74
1302.93,410.91
1303.1,409.98
1303.27,409.48
1303.44,409.07
1303.61,408.75
1303.78,408.96
1303.95,409.47
1304.12,410.08
1304.29,410.75
1304.46,411.41
1304.63,412.03
1304.8,412.58
1304.97,412.81
1305.14,412.98
1305.31,413.07
1305.48,413.12
1305.65,413.02
1305.82,412.95
1305.99,413.01
1306.17,413.11
1306.34,413.06
1306.51,412.88
1306.68,412.55
1306.85,412.12
1307.02,411.62
1307.19,411.03
1307.36,410.49
1307.53,410.15
1307.7,410.04
1307.87,410.07
1308.04,410.16
1308.22,410.33
1308.39,410.5
1308.56,410.47
1308.73,410.4
1308.9,410.44
1309.07,410.43
1309.24,410.37
1309.42,410.1
1309.59,409.75
1309.76,409.27
1309.93,408.58
1310.1,407.79
1310.27,407.19
1310.44,406.74
1310.62,406.64
1310.79,406.8
1310.96,407.17
1311.13,407.6
1311.3,407.8
1311.47,407.7
1311.65,407.16
1311.82,404.69
1311.99,401.38
1312.16,398.3
1312.34,395.45
1312.51,393.07
1312.68,392.36
1312.85,393.07
1313.03,395.2
1313.2,397.52
1313.37,399.82
1313.54,402.29
1313.71,404.18
1313.89,404.62
1314.06,404.74
1314.23,404.7
1314.41,404.24
1314.58,402.2
1314.75,399.12
1314.92,395.88
1315.1,392.54
1315.27,389.68
1315.44,388.64
1315.62,389.25
1315.79,391.57
1315.96,394.6
1316.14,397.7
1316.31,400.68
1316.48,403.02
1316.66,403.79
1316.83,404.03
1317,404.09
1317.18,403.36
1317.35,402.38
1317.52,401.47
1317.7,400.58
1317.87,399.71
1318.04,399.37
1318.22,399.57
1318.39,400.42
1318.56,401.36
1318.74,402.33
1318.91,403.34
1319.09,404.01
1319.26,403.94
1319.44,403.72
1319.61,403.37
1319.78,402.96
1319.96,402.53
1320.13,402.09
1320.31,401.54
1320.48,401.01
1320.66,400.47
1320.83,400.01
1321,399.58
1321.18,399.26
1321.35,399.06
1321.53,399.12
1321.7,399.2
1321.88,399.35
1322.05,399.59
1322.23,399.86
1322.4,400
1322.58,400.05
1322.75,399.92
1322.93,399.77
1323.1,399.62
1323.28,399.47
1323.45,399.43
1323.63,399.55
1323.8,399.73
1323.98,399.96
1324.15,400.19
1324.33,400.29
1324.5,400.14
1324.68,399.85
1324.85,399.4
1325.03,398.9
1325.2,398.49
1325.38,398.24
1325.56,397.94
1325.73,397.66
1325.91,397.29
1326.08,396.73
1326.26,396.05
1326.44,395.38
1326.61,394.81
1326.79,394.57
1326.96,394.64
1327.14,395.05
1327.32,395.7
1327.49,396.24
1327.67,396.34
1327.84,396.19
1328.02,395.67
1328.2,393.98
1328.37,391.72
1328.55,389.83
1328.73,388.23
1328.9,386.59
1329.08,385.7
1329.26,385.93
1329.43,387.01
1329.61,388.09
1329.79,389.33
1329.96,391.11
1330.14,392.73
1330.32,393.26
1330.49,393.61
1330.67,394.12
1330.85,394.43
1331.03,394.25
1331.2,393.59
1331.38,392.2
1331.56,390.55
1331.73,388.98
1331.91,387.5
1332.09,386.46
1332.27,386.39
1332.44,387.27
1332.62,388.76
1332.8,390.38
1332.98,392.14
1333.16,393.73
1333.33,394.51
1333.51,394.61
1333.69,394.58
1333.87,394.53
1334.05,394.46
1334.22,394.41
1334.4,394.4
1334.58,394.31
1334.76,393.79
1334.94,393.06
1335.11,392.39
1335.29,391.68
1335.47,391.01
1335.65,390.74
1335.83,390.94
1336.01,391.46
1336.18,391.99
1336.36,392.43
1336.54,392.75
1336.72,392.7
1336.9,392.17
1337.08,391.59
1337.26,391.01
1337.44,390.52
1337.61,390.22
1337.79,390.01
1337.97,389.76
1338.15,389.56
1338.33,389.23
1338.51,388.52
1338.69,387.22
1338.87,385.61
1339.05,384.09
1339.23,382.74
1339.41,381.75
1339.58,381.6
1339.76,382.34
1339.94,383.65
1340.12,385.23
1340.3,386.76
1340.48,387.96
1340.66,388.64
1340.84,388.68
1341.02,388.34
1341.2,387.84
1341.38,387.47
1341.56,387.25
1341.74,387.09
1341.92,387.1
1342.1,387.26
1342.28,387.44
1342.46,387.5
1342.64,387.38
1342.82,387.23
1343,387.07
1343.18,386.87
1343.36,386.76
1343.54,386.78
1343.72,386.96
1343.91,387.31
1344.09,387.64
1344.27,387.87
1344.45,388.02
1344.63,387.95
1344.81,387.64
1344.99,387.2
1345.17,386.68
1345.35,386.01
1345.53,385.26
1345.71,384.65
1345.9,384.2
1346.08,383.89
1346.26,383.84
1346.44,384.07
1346.62,384.46
1346.8,384.79
1346.98,385.01
1347.16,385.24
1347.35,385.32
1347.53,385.2
1347.71,385.09
1347.89,385.08
1348.07,385.06
1348.25,384.92
1348.44,384.73
1348.62,384.57
1348.8,384.27
1348.98,383.59
1349.16,382.76
1349.35,382.09
1349.53,381.35
1349.71,380.29
1349.89,379.34
1350.07,378.98
1350.26,378.83
1350.44,378.62
1350.62,378.75
1350.8,379.55
1350.99,380.38
1351.17,380.92
1351.35,381.51
1351.53,382.28
1351.72,382.82
1351.9,383
1352.08,383.1
1352.27,383.21
1352.45,383.12
1352.63,382.85
1352.81,382.54
1353,382.18
1353.18,381.78
1353.36,381.46
1353.55,381.23
1353.73,381.07
1353.91,380.92
1354.1,380.52
1354.28,379.87
1354.46,379.23
1354.65,378.24
1354.83,376.96
1355.01,375.99
1355.2,375.51
1355.38,375.2
1355.56,375.09
1355.75,375.41
1355.93,375.48
1356.12,374.83
1356.3,374.04
1356.48,373.47
1356.67,372.83
1356.85,372.42
1357.04,372.82
1357.22,373.67
1357.41,374.58
1357.59,375.5
1357.77,376.54
1357.96,377.21
1358.14,377.52
1358.33,377.65
1358.51,377.54
1358.7,377.05
1358.88,376.25
1359.06,375.27
1359.25,374.12
1359.43,373.07
1359.62,372.28
1359.8,372.15
1359.99,372.4
1360.17,372.98
1360.36,373.79
1360.54,374.92
1360.73,375.81
1360.92,376.33
1361.1,376.79
1361.29,377.17
1361.47,377.22
1361.66,376.93
1361.84,376.39
1362.03,375.35
1362.21,373.92
1362.4,372.52
1362.58,371.29
1362.77,370.3
1362.95,369.87
1363.14,370.12
1363.33,370.81
1363.51,371.66
1363.7,372.35
1363.88,372.69
1364.07,372.8
1364.26,372.71
1364.44,372.53
1364.63,372.42
1364.81,372.75
1365,373.28
1365.19,373.6
1365.37,373.64
1365.56,373.67
1365.75,373.51
1365.93,373.03
1366.12,372.39
1366.31,371.53
1366.49,370.8
1366.68,370.28
1366.87,369.86
1367.05,369.51
1367.24,369.57
1367.43,370.11
1367.61,370.58
1367.8,370.58
1367.99,370.24
1368.18,369.83
1368.36,368.85
1368.55,367.72
1368.74,366.74
1368.93,366.39
1369.11,366.3
1369.3,366.26
1369.49,366.18
1369.68,366.35
1369.86,366.42
1370.05,366.24
1370.24,366.05
1370.43,366.03
1370.61,365.95
1370.8,365.85
1370.99,365.92
1371.18,366.28
1371.37,366.55
1371.55,367.08
1371.74,367.93
1371.93,368.84
1372.12,369.56
1372.31,370.08
1372.49,370.3
1372.68,370.21
1372.87,370.01
1373.06,369.8
1373.25,369.68
1373.44,369.76
1373.63,369.67
1373.81,369.1
1374,368.22
1374.19,367.45
1374.38,366.57
1374.57,365.6
1374.76,364.98
1374.95,364.74
1375.14,364.28
1375.33,363.71
1375.52,363.09
1375.7,362.6
1375.89,361.7
1376.08,361.15
1376.27,361.14
1376.46,361.77
1376.65,362.55
1376.84,363.64
1377.03,364.64
1377.22,365.1
1377.41,365.1
1377.6,364.94
1377.79,364.85
1377.98,364.63
1378.17,364.63
1378.36,365.08
1378.55,365.73
1378.74,366.3
1378.93,366.74
1379.12,366.91
1379.31,366.58
1379.5,366.04
1379.69,365.47
1379.88,365
1380.07,364.64
1380.26,364.65
1380.45,364.77
1380.64,364.93
1380.83,365.06
1381.03,365.01
1381.21,364.43
1381.41,363.62
1381.6,362.74
1381.79,361.77
1381.98,360.77
1382.17,360.34
1382.36,360.32
1382.55,360.39
1382.74,360.48
1382.94,361.07
1383.13,361.67
1383.32,362.04
1383.51,362.33
1383.7,362.86
1383.89,363.32
1384.08,363.42
1384.28,363.14
1384.47,362.78
1384.66,362.09
1384.85,361.29
1385.04,360.62
1385.23,360.4
1385.43,360.52
1385.62,360.99
1385.81,361.32
1386,361.38
1386.19,361.4
1386.39,361.23
1386.58,360.72
1386.77,360.03
1386.96,359.93
1387.16,359.99
1387.35,359.99
1387.54,360.14
1387.73,360.65
1387.93,361
1388.12,361.1
1388.31,361.29
1388.5,361.59
1388.7,361.82
1388.89,361.79
1389.08,361.19
1389.28,360.06
1389.47,359
1389.66,357.94
1389.85,356.91
1390.05,356.27
1390.24,356.63
1390.43,357.31
1390.63,358.04
1390.82,358.89
1391.01,359.87
1391.21,360.31
1391.4,360.26
1391.59,360.1
1391.79,359.81
1391.98,359.37
1392.18,358.9
1392.37,358.54
1392.56,358.18
1392.76,357.87
1392.95,357.8
1393.15,357.79
1393.34,357.42
1393.53,356.88
1393.73,356.52
1393.92,356.17
1394.12,355.77
1394.31,355.52
1394.51,355.31
1394.7,355.11
1394.9,354.93
1395.09,354.8
1395.28,354.67
1395.48,354.83
1395.67,355.2
1395.87,355.58
1396.06,355.95
1396.26,356.42
1396.45,356.66
1396.65,356.69
1396.84,356.63
1397.04,356.63
1397.23,356.7
1397.43,356.82
1397.62,356.83
1397.82,356.75
1398.02,356.66
1398.21,356.48
1398.41,356.29
1398.6,356.16
1398.8,356.03
1398.99,355.37
1399.19,353.93
1399.38,352.37
1399.58,350.81
1399.78,349.08
1399.97,347.66
1400.17,347.12
1400.36,346.91
1400.56,347.09
1400.76,347.71
1400.95,348.64
1401.15,349.24
1401.34,350.04
1401.54,350.86
1401.74,351.58
1401.94,352.1
1402.13,352.49
1402.33,352.24
1402.53,351.63
1402.72,350.7
1402.92,349.88
1403.11,349.36
1403.31,349.28
1403.51,349.03
1403.71,349.28
1403.9,349.69
1404.1,349.95
1404.3,349.52
1404.49,349.55
1404.69,349.6
1404.89,349.55
1405.09,349.56
1405.28,350.28
1405.48,350.62
1405.68,350.58
1405.88,350.38
1406.07,350.21
1406.27,349.7
1406.47,349.35
1406.67,349.2
1406.86,349.07
1407.06,349.2
1407.26,349.48
1407.46,349.53
1407.66,349.27
1407.86,349.29
1408.05,349.26
1408.25,349.2
1408.45,349.22
1408.65,349.57
1408.85,349.78
1409.05,349.94
1409.24,350.1
1409.44,350.12
1409.64,349.92
1409.84,349.62
1410.04,349.27
1410.24,348.91
1410.44,348.55
1410.64,347.6
1410.83,345.64
1411.03,343.95
1411.23,342.07
1411.43,340.14
1411.63,338.61
1411.83,339.04
1412.03,339.6
1412.23,340.05
1412.43,340.84
1412.63,342.04
1412.83,342.34
1413.03,342.13
1413.23,342.53
1413.43,343.13
1413.63,343.65
1413.83,343.9
1414.03,344.4
1414.23,344.6
1414.43,344.61
1414.63,344.56
1414.83,345.09
1415.03,345.68
1415.23,345.98
1415.43,345.71
1415.63,345.46
1415.83,344.93
1416.03,344.1
1416.23,343.4
1416.43,343.49
1416.63,343.89
1416.83,344.32
1417.03,344.92
1417.23,345.7
1417.43,346.13
1417.64,345.99
1417.84,345.57
1418.04,345.18
1418.24,344.65
1418.44,343.75
1418.64,343.04
1418.84,342.83
1419.04,342.4
1419.24,341.52
1419.45,341.33
1419.65,341.33
1419.85,341.13
1420.05,340.88
1420.25,341.71
1420.45,342.31
1420.66,342.18
1420.86,341.09
1421.06,340.5
1421.26,339.53
1421.46,338.04
1421.67,336.45
1421.87,336.37
1422.07,335.89
1422.27,335.51
1422.47,335.42
1422.68,336.36
1422.88,336.46
1423.08,336.76
1423.29,336.57
1423.49,336.79
1423.69,336.63
1423.89,336.49
1424.1,336.17
1424.3,336.88
1424.5,337.46
1424.7,337.38
1424.91,337.26
1425.11,337.25
1425.31,336.13
1425.52,333.79
1425.72,332.49
1425.92,332.26
1426.13,332.31
1426.33,332.15
1426.53,332.79
1426.74,333.68
1426.94,333.71
1427.14,333.57
1427.35,333.79
1427.55,334.81
1427.76,335.42
1427.96,335.83
1428.16,335.71
1428.37,336.02
1428.57,335.21
1428.78,332.96
1428.98,330.64
1429.18,329.84
1429.39,329.09
1429.59,328.5
1429.8,329.8
1430,332.23
1430.21,333.22
1430.41,333.32
1430.61,334.1
1430.82,334.32
1431.03,333.56
1431.23,333.06
1431.43,333.99
1431.64,335.19
1431.84,336.43
1432.05,337.76
1432.25,339.17
1432.46,339.79
1432.67,339.4
1432.87,338.28
1433.07,337.21
1433.28,336.2
1433.49,335.08
1433.69,334.12
1433.9,334.02
1434.1,334.33
1434.31,334.69
1434.51,335.08
1434.72,335.58
1434.93,335.94
1435.13,335.99
1435.34,335.9
1435.54,335.6
1435.75,335.42
1435.96,335.38
1436.16,335.28
1436.37,335.1
1436.57,335.23
1436.78,335.69
1436.99,335.97
1437.19,335.98
1437.4,335.7
1437.61,335.6
1437.81,335.41
1438.02,335.13
1438.23,334.83
1438.44,335.34
1438.64,335.75
1438.85,335.89
1439.06,335.63
1439.26,334.66
1439.47,332.03
1439.68,327.98
1439.89,324.09
1440.09,320.44
1440.3,317.98
1440.51,317.3
1440.71,319.44
1440.92,322.52
1441.13,325.81
1441.34,327.92
1441.55,328.71
1441.75,328.05
1441.96,326.24
1442.17,323.87
1442.38,322.36
1442.58,322.8
1442.79,323.71
1443,324.86
1443.21,326.38
1443.42,327.81
1443.63,328
1443.83,326.85
1444.04,326
1444.25,325.36
1444.46,325.22
1444.67,325.18
1444.88,326.79
1445.09,328.37
1445.3,329.61
1445.5,330.34
1445.71,330.78
1445.92,329.98
1446.13,328.39
1446.34,327.42
1446.55,326.71
1446.76,326.23
1446.97,326.09
1447.18,326.92
1447.39,327.61
1447.6,328.17
1447.81,328.79
1448.02,329.31
1448.23,329.33
1448.44,329.17
1448.65,329.17
1448.85,329.13
1449.06,329.07
1449.28,328.63
1449.48,328.27
1449.7,327.42
1449.91,326.25
1450.12,325.1
1450.33,324.58
1450.54,323.4
1450.75,321.58
1450.96,321.05
1451.17,320.85
1451.38,320.31
1451.59,319.87
1451.8,321.37
1452.01,322.26
1452.22,323.05
1452.43,323.79
1452.64,324.67
1452.85,324.48
1453.07,324.09
1453.28,323.56
1453.49,322.96
1453.7,322.05
1453.91,321.02
1454.12,320.27
1454.33,319.75
1454.55,319.3
1454.76,319.4
1454.97,319.41
1455.18,319.29
1455.39,319.25
1455.6,319.34
1455.82,319.08
1456.03,319.48
1456.24,319.87
1456.45,320.26
1456.66,320.72
1456.88,321.4
1457.09,321.57
1457.3,321.93
1457.51,322.44
1457.73,322.99
1457.94,323.74
1458.15,324.61
1458.36,325.31
1458.58,325.43
1458.79,325.11
1459,324.8
1459.21,324.47
1459.43,323.77
1459.64,322.87
1459.85,322.31
1460.07,321.98
1460.28,321.71
1460.49,321.52
1460.71,321.57
1460.92,321.77
1461.13,321.34
1461.35,320.82
1461.56,320.49
1461.78,320.02
1461.99,318.83
1462.2,318.37
1462.42,317.99
1462.63,317.41
1462.84,316.92
1463.06,317.14
1463.27,316.57
1463.49,316.42
1463.7,316.81
1463.92,317.42
1464.13,317.86
1464.34,319.06
1464.56,319.48
1464.77,318.73
1464.99,318.06
1465.2,317.26
1465.42,315.95
1465.63,315.04
1465.85,315.79
1466.06,316.62
1466.28,317.79
1466.49,319.21
1466.71,320.36
1466.92,320.2
1467.14,319.36
1467.35,318.52
1467.57,317.45
1467.78,316.51
1468,316.04
1468.21,316.43
1468.43,316.93
1468.65,317.57
1468.86,318.49
1469.08,319.31
1469.29,319.56
1469.51,319.03
1469.72,318.08
1469.94,316.49
1470.16,314.92
1470.37,313.29
1470.59,312.28
1470.81,311.91
1471.02,312.54
1471.24,313.1
1471.45,313.34
1471.67,313.76
1471.89,313.67
1472.1,312.97
1472.32,311.96
1472.54,312.1
1472.75,311.65
1472.97,310.57
1473.19,309.28
1473.41,308.55
1473.62,307.36
1473.84,306.24
1474.06,306.73
1474.27,307.72
1474.49,308.11
1474.71,308.69
1474.93,309.5
1475.14,309.42
1475.36,308.64
1475.58,308.7
1475.8,309.02
1476.02,309.57
1476.23,309.96
1476.45,310.18
1476.67,310.01
1476.89,309.68
1477.1,309.07
1477.32,308.61
1477.54,308.22
1477.76,308.2
1477.98,308.15
1478.2,308.3
1478.42,308.49
1478.63,309.41
1478.85,310.71
1479.07,311.84
1479.29,312.6
1479.51,313.45
1479.73,313.82
1479.95,313.13
1480.17,311.71
1480.39,310.98
1480.6,310.13
1480.82,309.42
1481.04,308.97
1481.26,309.64
1481.48,310
1481.7,310.4
1481.92,310.55
1482.14,310.11
1482.36,309.41
1482.58,308.44
1482.8,307.05
1483.02,305.6
1483.24,306.01
1483.46,306.29
1483.68,306.64
1483.9,307.76
1484.12,309.85
1484.34,310.89
1484.56,311.58
1484.78,312.08
1485,312.47
1485.22,312.25
1485.44,311.54
1485.66,310.22
1485.88,309.5
1486.1,308.67
1486.33,307.87
1486.55,307.02
1486.77,306.61
1486.99,304.64
1487.21,299.7
1487.43,293.7
1487.65,288.35
1487.87,283.64
1488.09,279.9
1488.32,281.25
1488.54,286.36
1488.76,292.56
1488.98,298.54
1489.2,304.52
1489.43,308.11
1489.65,309.25
1489.87,308.94
1490.09,308.39
1490.31,308.12
1490.54,308.22
1490.76,307.87
1490.98,307.79
1491.2,307.55
1491.42,306.82
1491.65,306.17
1491.87,306.23
1492.09,306.07
1492.31,306.05
1492.54,306.96
1492.76,307.65
1492.98,307.78
1493.21,308.03
1493.43,308.46
1493.65,308.43
1493.88,308.54
1494.1,308.82
1494.32,308.86
1494.55,308.41
1494.77,308
1494.99,307.01
1495.21,304.8
1495.44,302.82
1495.66,301.25
1495.89,299.76
1496.11,298.4
1496.33,298.98
1496.56,299.37
1496.78,300.31
1497.01,301.23
1497.23,302.55
1497.45,303
1497.68,303.87
1497.9,303.96
1498.13,303.39
1498.35,303.05
1498.58,302.85
1498.8,302.3
1499.03,301.85
1499.25,302.58
1499.47,303.25
1499.7,303.92
1499.93,304.46
1500.15,305.02
1500.38,304.99
1500.6,304.72
1500.82,304.44
1501.05,304.28
1501.28,304
1501.5,303.41
1501.73,301.69
1501.95,296.93
1502.18,291.84
1502.4,287.57
1502.63,283.41
1502.85,279.65
1503.08,280.99
1503.31,283.57
1503.53,283.59
1503.76,284.37
1503.98,285.5
1504.21,282.58
1504.44,278.1
1504.66,277.09
1504.89,276.22
1505.12,275.49
1505.34,277.74
1505.57,281.32
1505.8,284.38
1506.02,287.33
1506.25,290.59
1506.48,293.47
1506.7,295.89
1506.93,297.18
1507.16,297.48
1507.39,297.76
1507.61,296.87
1507.84,295.07
1508.07,293.43
1508.3,292.65
1508.52,291.93
1508.75,291.84
1508.98,293.39
1509.21,295.28
1509.43,296.66
1509.66,297.89
1509.89,299.09
1510.12,299.4
1510.35,299.45
1510.57,299.51
1510.8,299.72
1511.03,299.62
1511.26,299.07
1511.49,298.03
1511.72,296.46
1511.94,294.94
1512.17,293.51
1512.4,292.61
1512.63,291.84
1512.86,291.96
1513.09,291.96
1513.32,292.08
1513.55,291.84
1513.78,291.99
1514.01,291.82
1514.23,292.03
1514.46,292.47
1514.69,293.1
1514.92,293.62
1515.15,294.12
1515.38,293.97
1515.61,293.56
1515.84,292.95
1516.07,292.33
1516.3,291.34
1516.53,291.07
1516.76,290.87
1516.99,291.45
1517.22,291.97
1517.45,293.03
1517.68,293.74
1517.91,294.14
1518.14,293.57
1518.37,293.22
1518.6,292.74
1518.83,291.93
1519.06,291.47
1519.3,292.04
1519.53,292.29
1519.76,292.45
1519.99,292.63
1520.22,291.7
1520.45,290.46
1520.68,289.68
1520.91,288.75
1521.14,287.11
1521.38,286.68
1521.61,286.63
1521.84,286.33
1522.07,286.04
1522.3,286.36
1522.53,287.28
1522.77,287.8
1523,288.3
1523.23,288.96
1523.46,289.89
1523.69,289.76
1523.93,288.62
1524.16,287.93
1524.39,287.36
1524.62,286.52
1524.85,285.69
1525.09,286.9
1525.32,287.97
1525.55,288.74
1525.79,289.49
1526.02,290.58
1526.25,290.45
1526.48,289.94
1526.72,289.47
1526.95,289.57
1527.18,289.75
1527.42,289.95
1527.65,290.1
1527.88,290.3
1528.12,290.12
1528.35,289.66
1528.58,289.11
1528.82,287.51
1529.05,284.94
1529.29,282.29
1529.52,279.85
1529.75,277.35
1529.99,276.22
1530.22,277.17
1530.46,279.08
1530.69,281.46
1530.93,284.11
1531.16,286.29
1531.39,287.37
1531.63,287.52
1531.86,286.99
1532.1,286.39
1532.33,285.86
1532.57,285.3
1532.8,284.88
1533.04,283.98
1533.27,283.3
1533.51,282.69
1533.74,281.66
1533.98,280.35
1534.21,280.54
1534.45,280.69
1534.68,280.66
1534.92,281.57
1535.16,283.02
1535.39,283.6
1535.63,283.94
1535.86,284.52
1536.1,284.75
1536.33,284.72
1536.57,284.81
1536.81,284.77
1537.04,283.93
1537.28,282.82
1537.52,281.94
1537.75,280.88
1537.99,279.49
1538.22,279.32
1538.46,279.94
1538.7,280.09
1538.94,279.05
1539.17,278.77
1539.41,278.03
1539.65,276.3
1539.88,274.31
1540.12,274.74
1540.36,275.08
1540.59,275.1
1540.83,275.94
1541.07,277.61
1541.31,278.19
1541.55,278.23
1541.78,278.62
1542.02,278.86
1542.26,278.85
1542.5,278.79
1542.73,279.04
1542.97,279.69
1543.21,280.19
1543.45,280.64
1543.69,280.97
1543.93,281.38
1544.16,281.38
1544.4,281.36
1544.64,281.33
1544.88,281.57
1545.12,281.67
1545.36,281.7
1545.59,281.58
1545.83,281.4
1546.07,281.04
1546.31,280.51
1546.55,279.19
1546.79,278.03
1547.03,276.47
1547.27,274.71
1547.51,272.93
1547.75,272.85
1547.99,272.63
1548.23,272.97
1548.47,273.83
1548.71,275.23
1548.95,275.48
1549.19,275.29
1549.43,275.12
1549.67,274.5
1549.91,273.75
1550.15,273.16
1550.39,273.39
1550.63,273.52
1550.87,274.38
1551.11,275.16
1551.35,276.18
1551.59,276.78
1551.83,277.32
1552.07,277.47
1552.31,277.35
1552.55,276.25
1552.8,275.01
1553.04,274.05
1553.28,272.59
1553.52,270.97
1553.76,269.99
1554,269.81
1554.24,269.66
1554.48,270.13
1554.73,270.25
1554.97,270.78
1555.21,270.51
1555.45,270.15
1555.69,269.38
1555.94,269.54
1556.18,269.58
1556.42,270.44
1556.66,271.37
1556.91,272.51
1557.15,273.09
1557.39,273.56
1557.63,273.14
1557.88,272.7
1558.12,272.25
1558.36,272.13
1558.6,271.37
1558.85,270.99
1559.09,270.7
1559.33,270.37
1559.58,269.82
1559.82,270.26
1560.06,271.16
1560.31,271.99
1560.55,272.83
1560.79,273.77
1561.04,274.5
1561.28,274.63
1561.52,273.98
1561.77,273.46
1562.01,273.18
1562.26,272.77
1562.5,271.81
1562.74,270.91
1562.99,270.42
1563.23,269.76
1563.48,269.05
1563.72,268.7
1563.97,269.68
1564.21,269.91
1564.46,270.56
1564.7,271.18
1564.94,271.8
1565.19,270.63
1565.44,270.12
1565.68,269.19
1565.93,268.11
1566.17,267.09
1566.42,267.26
1566.66,267.39
1566.91,267.54
1567.15,267.67
1567.4,267.37
1567.64,266.75
1567.89,266.09
1568.14,265.35
1568.38,264.9
1568.63,264.73
1568.87,264.89
1569.12,265.15
1569.37,265.36
1569.61,265.26
1569.86,265.9
1570.1,266.87
1570.35,267.54
1570.6,268.46
1570.84,269.63
1571.09,270.28
1571.34,270.41
1571.59,270.43
1571.83,269.68
1572.08,269.03
1572.33,268.68
1572.57,268.14
1572.82,267.41
1573.07,267.92
1573.32,268.05
1573.56,266.05
1573.81,264.76
1574.06,263.4
1574.31,259.14
1574.56,255.1
1574.8,255.12
1575.05,254.58
1575.3,253.21
1575.55,256.18
1575.8,258.75
1576.04,256.72
1576.29,253.75
1576.54,252.37
1576.79,248.58
1577.04,244.99
1577.29,245.6
1577.54,248.24
1577.79,251.42
1578.03,255.41
1578.28,259.41
1578.53,261.72
1578.78,263.51
1579.03,264.04
1579.28,264.14
1579.53,264.8
1579.78,265.61
1580.03,265.62
1580.28,266
1580.53,265.93
1580.78,265.96
1581.03,265.46
1581.28,263.5
1581.53,261.14
1581.78,258.86
1582.03,256.55
1582.28,254.97
1582.53,255.47
1582.78,256.26
1583.03,257.17
1583.28,258.1
1583.53,258.48
1583.78,257.88
1584.03,258.02
1584.28,258.92
1584.54,259.95
1584.79,260.91
1585.04,261.78
1585.29,261.97
1585.54,261.39
1585.79,260.57
1586.04,260.38
1586.29,259.7
1586.55,258.86
1586.8,257.9
1587.05,257.06
1587.3,255.24
1587.55,254.22
1587.81,252.7
1588.06,250.55
1588.31,246.6
1588.56,243.25
1588.81,239.53
1589.07,236.92
1589.32,235.73
1589.57,237.64
1589.82,239.67
1590.08,241.6
1590.33,243.2
1590.58,244.41
1590.84,244.92
1591.09,246.02
1591.34,248.05
1591.6,250.59
1591.85,253.45
1592.1,256.06
1592.36,258.05
1592.61,259.38
1592.86,260.2
1593.12,260.46
1593.37,260.42
1593.63,260.42
1593.88,260.61
1594.13,260.92
1594.39,261.3
1594.64,261.47
1594.9,260.99
1595.15,259.87
1595.41,257.37
1595.66,254.47
1595.91,251.6
1596.17,249.71
1596.42,248.7
1596.68,250.19
1596.93,252.46
1597.19,255.36
1597.44,257.93
1597.7,259.93
1597.95,260.53
1598.21,260.04
1598.46,258.83
1598.72,257.54
1598.98,256.38
1599.23,255.48
1599.49,255.81
1599.74,255.85
1600,255.48
1600.26,254.73
1600.51,253.6
1600.77,251.73
1601.03,250.85
1601.28,250.63
1601.54,250.87
1601.79,251.44
1602.05,252.41
1602.31,252.66
1602.56,252.84
1602.82,253.19
1603.08,253.49
1603.33,253.46
1603.59,253.61
1603.85,253.32
1604.11,252.61
1604.36,251.79
1604.62,251.3
1604.88,251.2
1605.14,251.52
1605.39,251.52
1605.65,251.24
1605.91,250.51
1606.17,249.36
1606.43,248.19
1606.68,248.17
1606.94,248.81
1607.2,249.97
1607.46,251.23
1607.72,252.25
1607.98,252.65
1608.23,252.69
1608.49,252.32
1608.75,251.09
1609.01,248.96
1609.27,246.33
1609.53,243.17
1609.79,239.97
1610.05,238.36
1610.31,238.45
1610.56,239.29
1610.82,240.98
1611.08,242.75
1611.34,243.79
1611.6,244.26
1611.86,244.56
1612.12,244.81
1612.38,245.62
1612.64,246.54
1612.9,247.27
1613.16,247.66
1613.42,247.76
1613.68,247.53
1613.94,247.26
1614.2,247.17
1614.47,247.09
1614.73,246.48
1614.99,244.99
1615.25,242.81
1615.51,240.46
1615.77,238.31
1616.03,236.83
1616.29,236.69
1616.55,237.49
1616.81,238.61
1617.08,240.53
1617.34,242.58
1617.6,244.19
1617.86,245.54
1618.12,246.38
1618.39,246.4
1618.65,246.39
1618.91,246.17
1619.17,245
1619.43,243.54
1619.7,241.48
1619.96,238.92
1620.22,236.47
1620.48,235.78
1620.74,236.09
1621.01,237.22
1621.27,238.71
1621.53,240.48
1621.8,241.35
1622.06,242.07
1622.32,243.11
1622.59,244.29
1622.85,245.21
1623.11,246.33
1623.38,247.16
1623.64,247.08
1623.9,246.53
1624.17,245.77
1624.43,244.69
1624.69,243.69
1624.96,243.46
1625.22,243.59
1625.49,243.74
1625.75,244.11
1626.02,244.45
1626.28,244.48
1626.55,244.61
1626.81,245.07
1627.07,245.51
1627.34,245.88
1627.6,246.24
1627.87,246.46
1628.13,246.48
1628.4,246.39
1628.67,245.94
1628.93,245.23
1629.19,244.36
1629.46,243.27
1629.73,242.35
1629.99,242.16
1630.26,242.28
1630.52,242.44
1630.79,242.79
1631.06,243.02
1631.32,242.86
1631.59,242.69
1631.85,242.47
1632.12,242.15
1632.39,241.77
1632.65,240.68
1632.92,239.25
1633.19,238.23
1633.45,237.24
1633.72,236.52
1633.99,237.08
1634.25,238.12
1634.52,238.97
1634.79,239.85
1635.06,240.5
1635.32,240.61
1635.59,240.19
1635.86,238.81
1636.13,237.09
1636.39,235.32
1636.66,233.43
1636.93,232.06
1637.2,231.96
1637.46,231.16
1637.73,229.67
1638,228.17
1638.27,226.31
1638.54,224.31
1638.81,224.32
1639.08,225.18
1639.34,226.08
1639.61,227.07
1639.88,227.77
1640.15,227.41
1640.42,226.93
1640.69,226.4
1640.96,225.88
1641.23,225.51
1641.5,225.51
1641.77,225.83
1642.04,226.6
1642.31,227.66
1642.58,228.84
1642.84,229.61
1643.11,229.76
1643.39,229.7
1643.66,229.32
1643.93,228.26
1644.2,227.63
1644.47,227.68
1644.74,227.57
1645.01,227.78
1645.28,228.87
1645.55,229.81
1645.82,230.41
1646.09,231.12
1646.36,231.6
1646.63,231.77
1646.9,231.84
1647.18,231.9
1647.45,232.01
1647.72,232.04
1647.99,231.35
1648.26,230.49
1648.53,229.76
1648.81,228.84
1649.08,228.23
1649.35,228.93
1649.62,229.85
1649.89,230.05
1650.17,230.19
1650.44,230.11
1650.71,229.13
1650.98,228.37
1651.26,228.83
1651.53,229.51
1651.8,229.86
1652.07,230.43
1652.35,230.79
1652.62,230.41
1652.89,230.13
1653.17,230.44
1653.44,230.65
1653.71,230.57
1653.99,230.51
1654.26,230.25
1654.53,229.68
1654.81,229.49
1655.08,229.68
1655.35,229.99
1655.63,230.49
1655.9,230.97
1656.18,231.16
1656.45,231.2
1656.73,231.19
1657,231.11
1657.28,231.02
1657.55,230.97
1657.82,230.91
1658.1,230.59
1658.38,230.05
1658.65,229.5
1658.93,228.96
1659.2,228.63
1659.48,228.82
1659.75,229.34
1660.03,229.98
1660.3,230.66
1660.58,231.16
1660.85,231.38
1661.13,231.32
1661.41,231.06
1661.68,230.65
1661.96,230.14
1662.23,229.61
1662.51,229.04
1662.79,228.58
1663.06,228.32
1663.34,228.08
1663.62,227.89
1663.89,227.79
1664.17,227.6
1664.45,227.28
1664.72,226.84
1665,226.25
1665.28,225.7
1665.56,225.24
1665.83,224.89
1666.11,224.9
1666.39,225.09
1666.67,225.08
1666.94,225
1667.22,224.62
1667.5,223.47
1667.78,222.21
1668.06,221.34
1668.33,220.7
1668.61,220.86
1668.89,222.15
1669.17,223.54
1669.45,224.68
1669.73,225.63
1670.01,225.92
1670.29,225.66
1670.56,225.27
1670.84,224.53
1671.12,223.09
1671.4,221.29
1671.68,219.24
1671.96,217.11
1672.24,215.91
1672.52,216.11
1672.8,217.09
1673.08,218.54
1673.36,220.13
1673.64,221.13
1673.92,221.42
1674.2,221.25
1674.48,220.28
1674.76,218.96
1675.04,217.72
1675.32,216.36
1675.6,215.31
1675.88,215.34
1676.17,215.82
1676.45,216.22
1676.73,217.02
1677.01,217.87
1677.29,218.11
1677.57,218.04
1677.85,217.83
1678.13,217.26
1678.42,216.38
1678.7,215.51
1678.98,214.63
1679.26,213.36
1679.54,211.68
1679.82,209.73
1680.11,207.26
1680.39,204.79
1680.67,203.15
1680.95,202.09
1681.24,201.79
1681.52,202.8
1681.8,204.38
1682.09,205.94
1682.37,207.8
1682.65,209.58
1682.94,210.87
1683.22,212
1683.5,213.1
1683.79,213.97
1684.07,214.65
1684.35,215.27
1684.64,215.75
1684.92,215.78
1685.2,215.55
1685.49,215.29
1685.77,214.94
1686.06,214.66
1686.34,214.72
1686.63,214.8
1686.91,214.71
1687.19,214.77
1687.48,214.89
1687.76,215.05
1688.05,215.34
1688.33,215.18
1688.62,214.48
1688.9,213.66
1689.19,212.68
1689.47,212.12
1689.76,212.61
1690.05,213.63
1690.33,214.61
1690.62,215.56
1690.9,216.12
1691.19,216.23
1691.47,216.29
1691.76,216.36
1692.05,216.46
1692.33,216.45
1692.62,216.33
1692.91,216.15
1693.19,215.9
1693.48,215.7
1693.77,215.59
1694.05,215.5
1694.34,215.45
1694.63,215.46
1694.92,215.41
1695.2,215.29
1695.49,215.15
1695.78,214.91
1696.06,214.59
1696.35,214.29
1696.64,214.03
1696.93,213.85
1697.22,213.77
1697.51,213.79
1697.79,213.84
1698.08,213.88
1698.37,213.79
1698.66,213.6
1698.95,213.15
1699.23,212.52
1699.52,211.88
1699.81,211.19
1700.1,210.66
1700.39,210.22
1700.68,209.88
1700.97,209.79
1701.26,209.79
1701.55,209.61
1701.84,209.49
1702.13,209.29
1702.42,208.67
1702.71,208.15
1703,207.98
1703.29,208.11
1703.58,208.56
1703.87,209.34
1704.16,210.13
1704.45,210.62
1704.74,210.72
1705.03,210.53
1705.32,210.2
1705.61,209.7
1705.9,209.16
1706.19,208.81
1706.48,208.51
1706.78,207.71
1707.07,206.65
1707.36,205.75
1707.65,204.84
1707.94,204.33
1708.23,204.56
1708.53,205.18
1708.82,205.69
1709.11,206.23
1709.4,206.79
1709.69,207.18
1709.99,206.97
1710.28,205.53
1710.57,203.23
1710.86,200.76
1711.16,198.45
1711.45,197.77
1711.74,199.33
1712.04,201.89
1712.33,204.4
1712.62,206.72
1712.92,207.97
1713.21,208.23
1713.5,208.25
1713.8,208.27
1714.09,208.29
1714.38,208.28
1714.68,208.22
1714.97,208.11
1715.27,207.78
1715.56,207.25
1715.85,206.73
1716.15,206.26
1716.44,205.94
1716.74,205.78
1717.03,205.68
1717.33,205.57
1717.62,205.38
1717.92,205.28
1718.21,205.37
1718.51,205.39
1718.8,205.23
1719.1,205.13
1719.4,204.77
1719.69,204.15
1719.99,203.54
1720.28,203.07
1720.58,202.53
1720.87,202.19
1721.17,202.38
1721.47,202.82
1721.76,202.82
1722.06,202.33
1722.36,201.34
1722.65,199.32
1722.95,197.48
1723.25,196.72
1723.54,196.89
1723.84,197.9
1724.14,199.63
1724.44,200.88
1724.73,201.49
1725.03,201.67
1725.33,201.46
1725.63,201.27
1725.92,201.43
1726.22,201.65
1726.52,201.93
1726.82,201.92
1727.12,201.48
1727.41,200.75
1727.71,199.95
1728.01,199.32
1728.31,199.17
1728.61,199.58
1728.91,200.15
1729.21,200.79
1729.51,201.27
1729.81,201.39
1730.1,201.16
1730.4,200.9
1730.7,200.56
1731,200.07
1731.3,199.53
1731.6,198.79
1731.9,197.14
1732.2,194.85
1732.5,192.59
1732.8,190.36
1733.1,188.72
1733.4,188.34
1733.7,188.88
1734,189.33
1734.31,189.93
1734.6,190.14
1734.91,189.61
1735.21,188.4
1735.51,186.81
1735.81,184.89
1736.11,183.12
1736.41,181.99
1736.71,181.81
1737.02,182.76
1737.32,184.47
1737.62,186.46
1737.92,188.48
1738.22,190.17
1738.53,191.36
1738.83,192.13
1739.13,192.72
1739.43,193.23
1739.74,193.63
1740.04,193.66
1740.34,193.3
1740.64,192.94
1740.95,192.37
1741.25,192.13
1741.55,192.54
1741.86,193.24
1742.16,193.73
1742.46,194.31
1742.77,194.61
1743.07,194.65
1743.38,194.88
1743.68,195.23
1743.98,195.34
1744.29,194.93
1744.59,194.23
1744.9,193.21
1745.2,192.07
1745.51,191.56
1745.81,191.25
1746.11,190.79
1746.42,190.54
1746.72,190.31
1747.03,189.9
1747.33,190.3
1747.64,191.36
1747.95,192.41
1748.25,193.38
1748.56,193.91
1748.86,193.75
1749.17,193.09
1749.47,192.3
1749.78,191.54
1750.09,190.76
1750.39,190.22
1750.7,190.06
1751.01,190.11
1751.31,190.24
1751.62,190.62
1751.93,190.72
1752.23,190.81
1752.54,191.09
1752.85,191.46
1753.16,191.78
1753.46,192.21
1753.77,192.36
1754.08,191.96
1754.39,191.52
1754.69,191.08
1755,190.66
1755.31,190.65
1755.62,190.94
1755.93,191.26
1756.23,191.66
1756.54,191.98
1756.85,191.86
1757.16,191.56
1757.47,191.25
1757.78,190.83
1758.09,190.57
1758.4,190.5
1758.71,190.49
1759.02,190.39
1759.32,190.34
1759.63,190.1
1759.94,189.6
1760.25,189.14
1760.56,188.61
1760.87,187.75
1761.18,186.7
1761.49,185.76
1761.8,184.57
1762.11,184
1762.43,184.16
1762.74,184.83
1763.05,185.52
1763.36,186.18
1763.67,186.35
1763.98,186.11
1764.29,185.93
1764.6,186.08
1764.91,186.55
1765.22,186.96
1765.54,187.32
1765.85,187.37
1766.16,187.12
1766.47,186.67
1766.78,186.16
1767.1,185.76
1767.41,185.32
1767.72,185.09
1768.03,185.13
1768.35,185.3
1768.66,185.34
1768.97,185.3
1769.29,184.98
1769.6,184.46
1769.91,183.85
1770.22,183.44
1770.54,183.27
1770.85,183.29
1771.17,183.5
1771.48,183.85
1771.79,184.13
1772.11,184.37
1772.42,184.56
1772.73,184.62
1773.05,184.59
1773.36,184.5
1773.68,184.28
1773.99,183.96
1774.31,183.6
1774.62,183.09
1774.94,182.55
1775.25,182.11
1775.57,181.63
1775.88,181.19
1776.2,180.69
1776.52,179.8
1776.83,179.02
1777.15,178.41
1777.46,178.17
1777.78,178.53
1778.09,179.3
1778.41,179.73
1778.73,180.05
1779.04,179.97
1779.36,179.74
1779.68,179.73
1779.99,180.04
1780.31,180.44
1780.63,180.74
1780.94,180.65
1781.26,180.33
1781.58,179.78
1781.9,179.18
1782.21,178.81
1782.53,178.64
1782.85,178.51
1783.17,178.51
1783.48,178.58
1783.8,178.36
1784.12,177.95
1784.44,177.66
1784.76,177.31
1785.08,177.18
1785.4,177.43
1785.71,178
1786.03,178.53
1786.35,179.17
1786.67,179.58
1786.99,179.78
1787.31,179.82
1787.63,179.75
1787.95,179.6
1788.27,179.37
1788.59,179.08
1788.91,178.75
1789.23,178.44
1789.55,178.22
1789.87,178.14
1790.19,178.12
1790.51,178.11
1790.83,178.01
1791.15,177.83
1791.47,177.59
1791.79,177.3
1792.11,177.09
1792.44,176.91
1792.76,176.83
1793.08,176.64
1793.4,176.46
1793.72,176.28
1794.04,176.11
1794.37,176.07
1794.69,176.25
1795.01,176.48
1795.33,176.6
1795.66,176.63
1795.98,176.47
1796.3,176.12
1796.62,175.83
1796.94,175.69
1797.27,175.66
1797.59,175.75
1797.91,176
1798.24,176.24
1798.56,176.45
1798.89,176.62
1799.21,176.61
1799.53,176.4
1799.86,175.85
1800.18,175.27
1800.5,174.7
1800.83,174.16
1801.15,173.59
1801.48,173.17
1801.8,172.5
1802.13,171.91
1802.45,171.64
1802.78,171.7
1803.1,172.08
1803.43,172.85
1803.75,173.64
1804.08,174.11
1804.4,174.41
1804.73,174.47
1805.05,174.33
1805.38,174.04
1805.71,173.63
1806.03,173.29
1806.36,172.92
1806.69,172.65
1807.01,172.55
1807.34,172.5
1807.67,172.48
1807.99,172.58
1808.32,172.68
1808.65,172.65
1808.97,172.69
1809.3,172.6
1809.63,172.5
1809.95,172.42
1810.28,172.31
1810.61,172.14
1810.94,171.87
1811.27,171.48
1811.59,171.1
1811.92,170.76
1812.25,170.56
1812.58,170.49
1812.91,170.46
1813.24,170.25
1813.57,169.83
1813.89,169.27
1814.22,168.53
1814.55,167.82
1814.88,167.17
1815.21,166.51
1815.54,165.68
1815.87,164.67
1816.2,163.2
1816.53,161.13
1816.86,158.62
1817.19,156.08
1817.52,154.02
1817.85,153.05
1818.18,153.44
1818.51,155.02
1818.84,157.27
1819.17,159.62
1819.51,161.59
1819.84,162.98
1820.17,163.97
1820.5,164.45
1820.83,164.55
1821.16,164.44
1821.49,163.8
1821.83,163.17
1822.16,162.85
1822.49,162.86
1822.82,163.34
1823.15,164.5
1823.49,165.64
1823.82,166.57
1824.15,167.28
1824.48,167.42
1824.82,167.34
1825.15,167.22
1825.48,167.15
1825.82,167.19
1826.15,167.31
1826.48,167.38
1826.82,167.41
1827.15,167.38
1827.48,166.98
1827.82,166.24
1828.15,165.59
1828.49,164.89
1828.82,164.57
1829.16,164.75
1829.49,165.27
1829.83,165.69
1830.16,166.21
1830.5,166.44
1830.83,166.49
1831.17,166.39
1831.5,166
1831.84,165.39
1832.17,164.4
1832.51,163.63
1832.84,163.2
1833.18,163.34
1833.52,163.79
1833.85,164.52
1834.19,164.86
1834.53,164.96
1834.86,164.77
1835.2,164.46
1835.54,164.23
1835.87,164.21
1836.21,164.27
1836.55,164.17
1836.89,163.66
1837.22,163.15
1837.56,162.44
1837.9,162.07
1838.23,162.09
1838.57,162.43
1838.91,162.57
1839.25,162.73
1839.59,162.61
1839.93,162.42
1840.27,162.47
1840.6,162.68
1840.94,162.82
1841.28,162.38
1841.62,161.38
1841.96,160.15
1842.3,158.84
1842.64,158.22
1842.98,158.3
1843.32,158.91
1843.66,159.55
1844,160.3
1844.34,160.61
1844.68,160.81
1845.02,160.98
1845.36,161.14
1845.7,160.74
1846.04,159.5
1846.38,158.01
1846.72,155.98
1847.06,154.71
1847.4,154.5
1847.75,155.43
1848.09,156.65
1848.43,158.4
1848.77,159.51
1849.11,160.23
1849.45,160.68
1849.8,160.96
1850.14,161.18
1850.48,161.34
1850.82,161.4
1851.17,161.26
1851.51,160.91
1851.85,160.3
1852.19,159.61
1852.54,158.91
1852.88,158.48
1853.22,158.41
1853.57,158.78
1853.91,159.26
1854.26,159.66
1854.6,159.48
1854.94,158.65
1855.29,157.72
1855.63,156.83
1855.98,156.57
1856.32,156.97
1856.67,157.85
1857.01,158.64
1857.35,159.33
1857.7,159.35
1858.05,158.94
1858.39,158.35
1858.74,157.52
1859.08,156.74
1859.43,156.16
1859.77,155.78
1860.12,155.69
1860.46,155.66
1860.81,155.7
1861.16,155.66
1861.5,155.64
1861.85,155.45
1862.2,155.55
1862.54,155.54
1862.89,155.66
1863.24,155.69
1863.59,155.73
1863.93,155.51
1864.28,155.56
1864.63,155.49
1864.98,155.3
1865.32,154.89
1865.67,154.19
1866.02,153.39
1866.37,152.58
1866.72,152.13
1867.06,151.86
1867.41,152.2
1867.76,152.43
1868.11,153.05
1868.46,153.58
1868.81,154.16
1869.16,154.51
1869.51,154.75
1869.86,154.59
1870.21,154.25
1870.56,153.83
1870.91,153.33
1871.26,152.68
1871.61,151.57
1871.96,150.51
1872.31,149.37
1872.66,148.43
1873.01,147.67
1873.36,147.07
1873.71,145.83
1874.06,143.65
1874.41,139.85
1874.77,135.35
1875.12,131.23
1875.47,128.8
1875.82,129.05
1876.17,131.87
1876.53,136.03
1876.88,140.52
1877.23,144.12
1877.58,146.38
1877.93,147.75
1878.29,148.62
1878.64,149.03
1878.99,149.22
1879.35,149.13
1879.7,149.15
1880.05,149.31
1880.41,149.82
1880.76,150.42
1881.11,151.03
1881.47,151.31
1881.82,151.35
1882.18,151.22
1882.53,151.1
1882.89,151.05
1883.24,151.06
1883.59,150.97
1883.95,150.71
1884.3,150.43
1884.66,149.81
1885.01,148.85
1885.37,148.19
1885.72,147.63
1886.08,147.59
1886.44,148.21
1886.79,149.09
1887.15,149.73
1887.51,150.35
1887.86,150.39
1888.22,150.15
1888.57,149.78
1888.93,149.22
1889.29,148.28
1889.65,147.57
1890,146.9
1890.36,146.79
1890.72,146.81
1891.07,147.16
1891.43,146.9
1891.79,146.43
1892.15,145.42
1892.51,144.48
1892.86,143.91
1893.22,143.96
1893.58,144.34
1893.94,144.81
1894.3,145.22
1894.66,145.1
1895.02,144.59
1895.38,143.65
1895.73,142.56
1896.09,141.92
1896.45,141.67
1896.81,142.05
1897.17,142.86
1897.53,143.98
1897.89,144.63
1898.25,144.89
1898.61,144.71
1898.97,144.21
1899.33,144.06
1899.7,144.21
1900.06,144.79
1900.42,145.41
1900.78,146.2
1901.14,146.5
1901.5,146.61
1901.86,146.45
1902.23,145.85
1902.59,144.98
1902.95,144.15
1903.31,143.42
1903.67,143.13
1904.04,143.17
1904.4,143.46
1904.76,143.67
1905.13,143.95
1905.49,143.95
1905.85,144
1906.21,143.97
1906.58,143.9
1906.94,143.62
1907.31,143.16
1907.67,142.72
1908.03,142.46
1908.4,142.47
1908.76,142.68
1909.13,143.03
1909.49,143.25
1909.85,143.25
1910.22,142.98
1910.58,142.27
1910.95,141.38
1911.31,140.65
1911.68,140.11
1912.05,140.02
1912.41,140.45
1912.78,141.07
1913.14,141.67
1913.51,142.15
1913.88,142.29
1914.24,142.2
1914.61,142.05
1914.97,141.76
1915.34,141.47
1915.71,141.18
1916.08,141.05
1916.44,141.04
1916.81,141.11
1917.18,141.1
1917.55,140.97
1917.91,140.77
1918.28,140.42
1918.65,139.87
1919.02,139.21
1919.39,138.67
1919.75,138.26
1920.12,138.35
1920.49,138.84
1920.86,139.53
1921.23,140.18
1921.6,140.7
1921.97,140.63
1922.34,140.23
1922.71,139.87
1923.08,139.47
1923.45,139.17
1923.82,139.17
1924.19,139.3
1924.56,139.5
1924.93,139.76
1925.3,139.83
1925.67,139.74
1926.04,139.64
1926.41,139.38
1926.78,138.94
1927.15,138.59
1927.53,137.97
1927.9,137.21
1928.27,136.33
1928.64,135.77
1929.01,135.38
1929.39,135.48
1929.76,135.77
1930.13,135.94
1930.5,135.88
1930.88,135.83
1931.25,135.42
1931.62,135.02
1931.99,134.83
1932.37,134.69
1932.74,134.59
1933.11,134.91
1933.49,135.37
1933.86,135.85
1934.24,136.22
1934.61,136.39
1934.98,136.27
1935.36,136.21
1935.73,136.25
1936.11,136.48
1936.48,136.68
1936.86,136.9
1937.23,136.89
1937.61,136.61
1937.98,135.75
1938.36,134.68
1938.74,133.43
1939.11,132.55
1939.49,132.26
1939.86,132.69
1940.24,133.36
1940.62,134.07
1940.99,134.39
1941.37,134.17
1941.75,133.56
1942.13,132.6
1942.5,131.19
1942.88,129.46
1943.26,127.48
1943.64,125.24
1944.01,122.9
1944.39,120.9
1944.77,119.17
1945.15,118.72
1945.53,119.4
1945.9,121.28
1946.28,123.66
1946.66,126.37
1947.04,128.27
1947.42,129.83
1947.8,130.76
1948.18,131.3
1948.56,131.35
1948.94,131.32
1949.32,131.04
1949.7,130.62
1950.08,129.7
1950.46,129.02
1950.84,128.08
1951.22,127.87
1951.6,128.17
1951.98,129.29
1952.36,130.53
1952.74,132.03
1953.13,132.85
1953.51,133.19
1953.89,133.32
1954.27,133.29
1954.65,133.11
1955.03,132.9
1955.42,132.63
1955.8,132.44
1956.18,132.28
1956.56,132.27
1956.95,132.2
1957.33,132.23
1957.71,132.14
1958.1,132.05
1958.48,131.81
1958.86,131.69
1959.25,131.47
1959.63,131.33
1960.02,131.27
1960.4,131.21
1960.78,130.86
1961.17,130.62
1961.55,130.1
1961.94,129.42
1962.32,128.83
1962.71,128.21
1963.09,127.51
1963.48,127.32
1963.86,127.25
1964.25,127.5
1964.64,127.92
1965.02,128.37
1965.41,128.34
1965.8,128.45
1966.18,128.35
1966.57,128.49
1966.95,128.73
1967.34,129.15
1967.73,129.28
1968.12,129.34
1968.5,129.15
1968.89,128.97
1969.28,128.88
1969.67,128.91
1970.06,128.89
1970.44,128.84
1970.83,128.63
1971.22,128.02
1971.61,126.8
1972,125.73
1972.39,124.49
1972.78,123.74
1973.17,123.62
1973.55,124.08
1973.94,124.71
1974.33,125.65
1974.72,126.21
1975.11,126.45
1975.5,126.64
1975.89,126.61
1976.29,126.43
1976.68,126
1977.07,124.93
1977.46,124.09
1977.85,123.1
1978.24,122.73
1978.63,122.54
1979.02,123.07
1979.41,123.18
1979.81,123.61
1980.2,123.52
1980.59,123.55
1980.98,123.61
1981.38,124.04
1981.77,124.25
1982.16,124.48
1982.55,124.59
1982.95,124.48
1983.34,124.23
1983.73,123.91
1984.13,123.5
1984.52,122.93
1984.92,122.56
1985.31,121.98
1985.7,121.57
1986.1,121.36
1986.49,121.41
1986.89,121.76
1987.28,122.45
1987.68,123.09
1988.07,123.55
1988.47,123.93
1988.86,123.97
1989.26,123.88
1989.65,123.79
1990.05,123.71
1990.45,123.6
1990.84,123.39
1991.24,123.04
1991.64,122.53
1992.03,121.86
1992.43,121.09
1992.83,120.29
1993.22,119.83
1993.62,119.64
1994.02,119.96
1994.42,120.46
1994.81,121.14
1995.21,121.54
1995.61,121.66
1996.01,121.46
1996.41,120.89
1996.81,120.31
1997.2,119.86
1997.6,119.65
1998,119.69
1998.4,120.09
1998.8,120.5
1999.2,120.86
1999.6,121.14
2000,121.12
2000.4,121.06
2000.8,120.97
2001.2,120.84
2001.6,120.52
2002,120.17
2002.4,119.69
2002.8,119.22
2003.2,118.91
2003.61,118.83
2004.01,118.89
2004.41,118.94
2004.81,118.94
2005.21,118.78
2005.62,118.7
2006.02,118.72
2006.42,118.93
2006.82,119.2
2007.23,119.5
2007.63,119.63
2008.03,119.55
2008.44,119.42
2008.84,119.27
2009.24,119.17
2009.65,119.06
2010.05,118.99
2010.45,118.89
2010.86,118.8
2011.26,118.68
2011.67,118.6
2012.07,118.51
2012.48,118.44
2012.88,118.26
2013.29,118.09
2013.69,117.88
2014.1,117.77
2014.5,117.71
2014.91,117.77
2015.32,117.77
2015.72,117.79
2016.13,117.69
2016.54,117.57
2016.94,117.46
2017.35,117.4
2017.76,117.36
2018.16,117.33
2018.57,117.27
2018.98,117.05
2019.39,116.59
2019.79,115.83
2020.2,114.93
2020.61,114.21
2021.02,113.74
2021.43,113.75
2021.84,114.12
2022.24,114.7
2022.65,115.22
2023.06,115.57
2023.47,115.53
2023.88,115.41
2024.29,115.21
2024.7,115.05
2025.11,115.01
2025.52,115.08
2025.93,115.14
2026.34,115.22
2026.75,115.18
2027.16,115.05
2027.57,114.78
2027.99,114.52
2028.4,114.07
2028.81,113.53
2029.22,112.99
2029.63,112.38
2030.05,112.08
2030.46,111.99
2030.87,112.27
2031.28,112.66
2031.69,113.34
2032.11,113.72
2032.52,114.07
2032.93,114.12
2033.35,113.95
2033.76,113.34
2034.17,112.7
2034.59,111.98
2035,111.65
2035.42,111.67
2035.83,112.15
2036.24,112.54
2036.66,112.78
2037.07,112.14
2037.49,111.3
2037.91,110.42
2038.32,110.03
2038.74,110.15
2039.15,110.83
2039.57,111.58
2039.98,112.27
2040.4,112.45
2040.82,112.31
2041.23,112.13
2041.65,112.01
2042.07,111.97
2042.48,112.07
2042.9,112.17
2043.32,112.27
2043.74,112.24
2044.15,112.18
2044.57,112.11
2044.99,112.05
2045.41,111.99
2045.83,111.91
2046.24,111.76
2046.66,111.55
2047.08,111.33
2047.5,111.14
2047.92,111.06
2048.34,111.04
2048.76,111.09
2049.18,111.04
2049.6,110.96
2050.02,110.78
2050.44,110.59
2050.86,110.38
2051.28,110.08
2051.7,109.76
2052.12,109.45
2052.54,109.26
2052.97,109.15
2053.39,109.26
2053.81,109.4
2054.23,109.61
2054.65,109.72
2055.08,109.76
2055.5,109.72
2055.92,109.68
2056.34,109.6
2056.77,109.5
2057.19,109.31
2057.61,109.18
2058.04,108.99
2058.46,108.89
2058.88,108.78
2059.31,108.57
2059.73,108.06
2060.16,107.64
2060.58,107.15
2061.01,107.03
2061.43,107.21
2061.85,107.51
2062.28,107.21
2062.71,106.75
2063.13,105.88
2063.56,105.31
2063.98,105.26
2064.41,105.84
2064.84,106.55
2065.26,107.36
2065.69,107.77
2066.12,107.78
2066.54,107.66
2066.97,107.49
2067.4,107.32
2067.82,107.18
2068.25,107.12
2068.68,107
2069.11,106.53
2069.54,106.14
2069.97,105.59
2070.39,105.33
2070.82,105.19
2071.25,105.47
2071.68,105.67
2072.11,106.1
2072.54,106.26
2072.97,106.38
2073.4,106.5
2073.83,106.59
2074.26,106.57
2074.69,106.51
2075.12,106.43
2075.55,106.33
2075.98,106.23
2076.41,106.12
2076.84,106.02
2077.27,105.93
2077.71,105.8
2078.14,105.5
2078.57,105.21
2079,104.79
2079.43,104.47
2079.87,104.2
2080.3,104.16
2080.73,104.15
2081.17,104.29
2081.6,104.3
2082.03,104.12
2082.47,103.84
2082.9,103.47
2083.33,103.15
2083.77,103.03
2084.2,103.15
2084.64,103.38
2085.07,103.69
2085.51,103.93
2085.94,103.99
2086.38,104.02
2086.81,103.98
2087.25,103.91
2087.68,103.84
2088.12,103.76
2088.55,103.67
2088.99,103.62
2089.43,103.54
2089.86,103.38
2090.3,103.2
2090.74,102.7
2091.18,102
2091.61,101.34
2092.05,100.74
2092.49,100.58
2092.93,100.71
2093.36,100.96
2093.8,101.22
2094.24,101.25
2094.68,101.11
2095.12,100.94
2095.56,100.94
2096,101
2096.44,101.23
2096.88,101.34
2097.31,101.47
2097.75,101.47
2098.2,101.41
2098.64,101.42
2099.08,101.37
2099.52,101.33
2099.96,101.3
2100.4,101.24
2100.84,101.26
2101.28,101.22
2101.72,101.1
2102.17,100.96
2102.61,100.84
2103.05,100.74
2103.49,100.71
2103.93,100.8
2104.38,100.92
2104.82,101.05
2105.26,101.07
2105.71,101.02
2106.15,100.94
2106.59,100.85
2107.04,100.73
2107.48,100.6
2107.93,100.38
2108.37,99.96
2108.81,99.55
2109.26,99.14
2109.71,98.94
2110.15,98.94
2110.59,99.16
2111.04,99.38
2111.49,99.55
2111.93,99.56
2112.38,99.44
2112.82,99.36
2113.27,99.3
2113.72,99.28
2114.17,99.26
2114.61,99.21
2115.06,99.05
2115.51,98.56
2115.95,98.15
2116.4,97.69
2116.85,97.52
2117.3,97.54
2117.75,97.83
2118.2,97.9
2118.64,97.94
2119.09,97.72
2119.54,97.48
2119.99,97.36
2120.44,97.29
2120.89,97.33
2121.34,97.34
2121.79,97.33
2122.24,97.17
2122.69,96.92
2123.14,96.58
2123.59,96.32
2124.04,96.11
2124.5,96.1
2124.95,96.2
2125.4,96.22
2125.85,96.27
2126.3,96.21
2126.75,96.17
2127.21,96.21
2127.66,96.37
2128.11,96.5
2128.56,96.57
2129.02,96.51
2129.47,96.38
2129.93,96.35
2130.38,96.34
2130.83,96.39
2131.29,96.41
2131.74,96.41
2132.2,96.34
2132.65,96.24
2133.11,96.14
2133.56,96.02
2134.02,95.84
2134.47,95.32
2134.93,94.9
2135.38,94.38
2135.84,94.19
2136.3,94.19
2136.75,94.55
2137.21,94.89
2137.67,95.29
2138.12,95.34
2138.58,95.27
2139.04,95.18
2139.5,95.13
2139.95,95.1
2140.41,95.12
2140.87,95.13
2141.33,95.13
2141.79,95.08
2142.25,94.99
2142.7,94.9
2143.16,94.8
2143.62,94.67
2144.08,94.55
2144.54,94.33
2145,94.11
2145.46,93.93
2145.92,93.87
2146.38,93.9
2146.84,94.07
2147.3,94.2
2147.77,94.31
2148.23,94.35
2148.69,94.27
2149.15,94.18
2149.61,94.09
2150.07,94
2150.54,93.91
2151,93.81
2151.46,93.63
2151.93,93.47
2152.39,93.29
2152.85,93.15
2153.32,93.04
2153.78,93
2154.24,92.97
2154.71,92.99
2155.17,92.97
2155.64,92.93
2156.1,92.9
2156.57,92.83
2157.03,92.76
2157.5,92.67
2157.96,92.55
2158.43,92.42
2158.9,92.27
2159.36,92.13
2159.83,91.98
2160.29,91.79
2160.76,91.57
2161.23,91.33
2161.7,91.05
2162.16,90.77
2162.63,90.45
2163.1,90.04
2163.57,89.46
2164.03,88.49
2164.5,86.86
2164.97,84.92
2165.44,83.14
2165.91,82.05
2166.38,81.98
2166.85,82.92
2167.32,84.49
2167.79,86.2
2168.26,87.57
2168.73,88.43
2169.2,88.96
2169.67,89.35
2170.14,89.58
2170.61,89.68
2171.08,89.75
2171.55,89.79
2172.02,89.83
2172.5,89.82
2172.97,89.85
2173.44,89.82
2173.91,89.85
2174.39,89.79
2174.86,89.7
2175.33,89.48
2175.8,89.3
2176.28,89.11
2176.75,88.98
2177.23,88.52
2177.7,88.27
2178.18,87.9
2178.65,87.92
2179.12,88.03
2179.6,88.5
2180.07,88.89
2180.55,89.27
2181.02,88.95
2181.5,88.6
2181.98,88.16
2182.45,88
2182.93,87.99
2183.41,88.26
2183.88,88.5
2184.36,88.82
2184.84,88.88
2185.31,88.88
2185.79,88.86
2186.27,88.74
2186.75,88.38
2187.23,87.7
2187.71,87.08
2188.18,86.48
2188.66,86.17
2189.14,86.18
2189.62,86.49
2190.1,86.85
2190.58,87.23
2191.06,87.35
2191.54,87.36
2192.02,87.4
2192.5,87.3
2192.98,87.15
2193.46,87.03
2193.95,86.92
2194.43,86.81
2194.91,86.71
2195.39,86.59
2195.87,86.49
2196.35,86.4
2196.84,86.32
2197.32,86.27
2197.8,86.23
2198.28,86.16
2198.77,86.1
2199.25,86
2199.74,85.88
2200.22,85.76
2200.7,85.64
2201.19,85.54
2201.67,85.46
2202.16,85.41
2202.64,85.38
2203.13,85.37
2203.61,85.35
2204.1,85.23
2204.58,84.79
2205.07,84.24
2205.56,83.25
2206.04,82.61
2206.53,82.01
2207.02,82.08
2207.5,82.07
2207.99,82.63
2208.48,82.82
2208.97,83.28
2209.46,83.44
2209.95,83.77
2210.43,83.94
2210.92,84.16
2211.41,84.12
2211.9,84.05
2212.39,83.95
2212.88,83.87
2213.37,83.78
2213.86,83.71
2214.35,83.61
2214.84,83.46
2215.33,83.21
2215.82,82.92
2216.31,82.67
2216.8,82.46
2217.29,82.44
2217.79,82.52
2218.28,82.7
2218.77,82.85
2219.26,82.96
2219.76,82.94
2220.25,82.89
2220.74,82.79
2221.24,82.69
2221.73,82.61
2222.22,82.52
2222.72,82.45
2223.21,82.36
2223.71,82.29
2224.2,82.18
2224.69,81.91
2225.19,81.56
2225.68,81.23
2226.18,80.99
2226.68,80.87
2227.17,80.94
2227.67,81.08
2228.16,81.28
2228.66,81.4
2229.16,81.39
2229.65,81.37
2230.15,81.33
2230.65,81.28
2231.15,81.17
2231.65,81.14
2232.14,81.11
2232.64,81.11
2233.14,81.05
2233.64,80.98
2234.14,80.87
2234.64,80.76
2235.14,80.67
2235.64,80.59
2236.14,80.47
2236.64,80.31
2237.14,79.99
2237.64,79.64
2238.14,79.32
2238.64,79.11
2239.14,79.02
2239.64,79.14
2240.14,79.37
2240.65,79.56
2241.15,79.54
2241.65,79.44
2242.15,79.29
2242.66,79.15
2243.16,79.05
2243.66,79.09
2244.17,79.16
2244.67,79.23
2245.17,79.21
2245.68,79.16
2246.18,78.99
2246.69,78.7
2247.19,78.42
2247.7,78.24
2248.2,78.15
2248.71,78.16
2249.21,78.27
2249.72,78.39
2250.23,78.41
2250.73,78.34
2251.24,78.27
2251.75,78.18
2252.25,78.06
2252.76,77.73
2253.27,77.38
2253.77,77.06
2254.28,76.92
2254.79,76.83
2255.3,76.92
2255.81,77.09
2256.32,77.25
2256.83,77.29
2257.34,77.33
2257.85,77.38
2258.36,77.4
2258.87,77.39
2259.38,77.36
2259.89,77.26
2260.4,77.12
2260.91,76.77
2261.42,76.36
2261.93,75.98
2262.44,75.84
2262.96,75.86
2263.47,76.05
2263.98,76.22
2264.49,76.32
2265.01,76.26
2265.52,76.14
2266.03,76.08
2266.55,76.1
2267.06,76.17
2267.57,76.19
2268.09,76.15
2268.6,76.11
2269.12,76.05
2269.63,75.93
2270.15,75.78
2270.66,75.67
2271.18,75.63
2271.7,75.63
2272.21,75.67
2272.73,75.71
2273.24,75.62
2273.76,75.43
2274.28,75.24
2274.79,75.14
2275.31,75.08
2275.83,75.13
2276.35,75.21
2276.87,75.28
2277.39,75.24
2277.9,75.16
2278.42,75.07
2278.94,74.97
2279.46,74.78
2279.98,74.24
2280.5,73.59
2281.02,72.99
2281.54,72.75
2282.06,72.65
2282.58,72.96
2283.1,73.39
2283.63,73.76
2284.15,73.78
2284.67,73.74
2285.19,73.7
2285.71,73.66
2286.24,73.66
2286.76,73.67
2287.28,73.68
2287.81,73.64
2288.33,73.6
2288.85,73.54
2289.38,73.48
2289.9,73.39
2290.43,73.29
2290.95,73.21
2291.48,73.15
2292,72.92
2292.53,72.55
2293.05,72.1
2293.58,71.73
2294.1,71.41
2294.63,71.27
2295.16,71.29
2295.68,71.28
2296.21,71.18
2296.74,71.09
2297.27,71.16
2297.79,71.28
2298.32,71.5
2298.85,71.67
2299.38,71.8
2299.91,71.8
2300.44,71.8
2300.97,71.8
2301.5,71.83
2302.03,71.82
2302.56,71.76
2303.09,71.68
2303.62,71.59
2304.15,71.51
2304.68,71.46
2305.21,71.43
2305.74,71.42
2306.27,71.39
2306.8,71.37
2307.34,71.29
2307.87,71.18
2308.4,71.03
2308.94,70.93
2309.47,70.86
2310,70.83
2310.54,70.82
2311.07,70.84
2311.6,70.82
2312.14,70.77
2312.67,70.71
2313.21,70.58
2313.74,70.38
2314.28,70.18
2314.81,70.04
2315.35,69.88
2315.89,69.74
2316.42,69.67
2316.96,69.61
2317.5,69.49
2318.03,69.4
2318.57,69.41
2319.11,69.46
2319.65,69.56
2320.19,69.67
2320.72,69.71
2321.26,69.37
2321.8,68.76
2322.34,68.09
2322.88,67.58
2323.42,67.18
2323.96,67.06
2324.5,67.13
2325.04,67.28
2325.58,67.34
2326.12,67.47
2326.66,67.64
2327.21,67.86
2327.75,68.03
2328.29,68.15
2328.83,68.14
2329.37,68.09
2329.92,68
2330.46,67.92
2331,67.82
2331.55,67.76
2332.09,67.72
2332.63,67.75
2333.18,67.77
2333.72,67.69
2334.27,67.48
2334.81,67.34
2335.36,67.3
2335.9,67.33
2336.45,67.39
2337,67.36
2337.54,67.16
2338.09,66.93
2338.63,66.82
2339.18,66.81
2339.73,66.95
2340.28,67.2
2340.82,67.36
2341.37,67.37
2341.92,67.3
2342.47,67.24
2343.02,67.16
2343.57,67.06
2344.12,66.95
2344.67,66.86
2345.22,66.79
2345.77,66.74
2346.32,66.69
2346.87,66.65
2347.42,66.61
2347.97,66.58
2348.52,66.55
2349.07,66.51
2349.62,66.46
2350.18,66.32
2350.73,65.98
2351.28,65.42
2351.83,64.79
2352.39,64.26
2352.94,63.93
2353.5,63.83
2354.05,63.99
2354.6,64.27
2355.16,64.46
2355.71,64.46
2356.27,64.37
2356.82,64.28
2357.38,64.27
2357.94,64.31
2358.49,64.43
2359.05,64.59
2359.6,64.72
2360.16,64.78
2360.72,64.79
2361.27,64.75
2361.83,64.7
2362.39,64.67
2362.95,64.62
2363.51,64.54
2364.07,64.46
2364.63,64.42
2365.19,64.4
2365.74,64.39
2366.3,64.4
2366.86,64.4
2367.42,64.36
2367.99,64.28
2368.55,64.12
2369.11,63.93
2369.67,63.79
2370.23,63.74
2370.79,63.7
2371.35,63.7
2371.92,63.66
2372.48,63.38
2373.04,62.89
2373.6,62.48
2374.17,62.31
2374.73,62.32
2375.3,62.6
2375.86,63.03
2376.43,63.37
2376.99,63.45
2377.56,63.4
2378.12,63.31
2378.69,63.2
2379.25,63.1
2379.82,63.02
2380.39,63
2380.95,62.92
2381.52,62.57
2382.09,62
2382.65,61.34
2383.22,60.69
2383.79,60.09
2384.36,59.83
2384.93,59.79
2385.5,59.85
2386.06,59.96
2386.64,60.21
2387.21,60.44
2387.77,60.68
2388.34,60.9
2388.92,61.06
2389.49,61.08
2390.06,61.07
2390.63,61.03
2391.2,60.94
2391.77,60.81
2392.34,60.7
2392.92,60.65
2393.49,60.6
2394.06,60.56
2394.64,60.58
2395.21,60.57
2395.78,60.53
2396.36,60.48
2396.93,60.48
2397.51,60.45